#  Table pcf160bwsys.tab  Mon 12:21:07 02-Jun-97

#      WAVELENGTH      THROUGHPUT
#       angstroms                

            1216.     3.996684E-4
          1217.34     4.068969E-4
         1218.682     4.142192E-4
         1220.026     4.216199E-4
         1221.371     4.278348E-4
         1222.717     4.341186E-4
         1224.065     4.404793E-4
         1225.414     4.469131E-4
         1226.765     4.534218E-4
         1228.117     4.600056E-4
         1229.471     4.666648E-4
         1230.826     4.726674E-4
         1232.183     4.782644E-4
         1233.542     4.839183E-4
         1234.901     4.896219E-4
         1236.262     4.953833E-4
         1237.625     5.011978E-4
         1238.989     5.070714E-4
         1240.355     5.127479E-4
         1241.722     5.177343E-4
         1243.091     5.227636E-4
         1244.461     5.278332E-4
         1245.833     5.329411E-4
         1247.207     5.380951E-4
         1248.582     5.432884E-4
         1249.957     5.485202E-4
         1251.335     5.530642E-4
         1252.715     5.576155E-4
         1254.095     5.621951E-4
         1255.478     5.668096E-4
         1256.862     5.714528E-4
         1258.247     5.761245E-4
         1259.634     5.808297E-4
         1261.023     5.850947E-4
         1262.413     5.892143E-4
         1263.805     5.933565E-4
         1265.198     5.975210E-4
         1266.592     6.017062E-4
         1267.989     6.059165E-4
         1269.387     6.101514E-4
         1270.786     6.140941E-4
         1272.187     6.178130E-4
         1273.588     6.215460E-4
         1274.992     6.252968E-4
         1276.399     6.290654E-4
         1277.805     6.328466E-4
         1279.214     6.366451E-4
         1280.624     6.402637E-4
         1282.035     6.436448E-4
         1283.449     6.470403E-4
         1284.864     6.504449E-4
          1286.28     6.538582E-4
         1287.698     6.572847E-4
         1289.117     6.607217E-4
         1290.538     6.640453E-4
         1291.961     6.671729E-4
         1293.385     6.703074E-4
         1294.811     6.734480E-4
         1296.238     6.765969E-4
         1297.668     6.797548E-4
         1299.098     6.829171E-4
          1300.53     6.856611E-4
         1301.963     6.876818E-4
         1303.398     6.897037E-4
         1304.835     6.917289E-4
         1306.274     6.937569E-4
         1307.713     6.957853E-4
         1309.155     6.978168E-4
         1310.597     6.997791E-4
         1312.042     7.016443E-4
         1313.489     7.035102E-4
         1314.937     7.053777E-4
         1316.386     7.072440E-4
         1317.837     7.091118E-4
          1319.29     7.109796E-4
         1320.744     7.127791E-4
           1322.2     7.145118E-4
         1323.657     7.162439E-4
         1325.117     7.179757E-4
         1326.578     7.197068E-4
         1328.039     7.214364E-4
         1329.503     7.231663E-4
         1330.969     7.248132E-4
         1332.436     7.264162E-4
         1333.905     7.280177E-4
         1335.376     7.296175E-4
         1336.847     7.312145E-4
         1338.321     7.328106E-4
         1339.796     7.344048E-4
         1341.273     7.359245E-4
         1342.752     7.374302E-4
         1344.232     7.389332E-4
         1345.713     7.404328E-4
         1347.197     7.419304E-4
         1348.682     7.434256E-4
         1350.169     7.449104E-4
         1351.657     7.463356E-4
         1353.146     7.477566E-4
         1354.638     7.490973E-4
         1356.131     7.503303E-4
         1357.627     7.515604E-4
         1359.123     7.527857E-4
         1360.621     7.539928E-4
         1362.121     7.551751E-4
         1363.622     7.563527E-4
         1365.126     7.575277E-4
          1366.63     7.586972E-4
         1368.137     7.598633E-4
         1369.645     7.610252E-4
         1371.155     7.621820E-4
         1372.667     7.633357E-4
          1374.18     7.644844E-4
         1375.694     7.656284E-4
         1377.211     7.667684E-4
         1378.729     7.679042E-4
         1380.249     7.690392E-4
         1381.771     7.701879E-4
         1383.294     7.713324E-4
         1384.818     7.724719E-4
         1386.345     7.736078E-4
         1387.874     7.747398E-4
         1389.403     7.758662E-4
         1390.935     7.770246E-4
         1392.468     7.782017E-4
         1394.002     7.793742E-4
          1395.54     7.805435E-4
         1397.078     7.817084E-4
         1398.618     7.828685E-4
          1400.16     7.838574E-4
         1401.703     7.833888E-4
         1403.248     7.829162E-4
         1404.795     7.824390E-4
         1406.343     7.819578E-4
         1407.894     7.814723E-4
         1409.446     7.809824E-4
         1410.999     7.805134E-4
         1412.555     7.800536E-4
         1414.112     7.795897E-4
          1415.67     7.791220E-4
         1417.231     7.786499E-4
         1418.793     7.781737E-4
         1420.357     7.776896E-4
         1421.923     7.771889E-4
         1423.491     7.766839E-4
         1425.059     7.761751E-4
          1426.63     7.756618E-4
         1428.203     7.751443E-4
         1429.777     7.746228E-4
         1431.354     7.740473E-4
         1432.932     7.734593E-4
          1434.51     7.728674E-4
         1436.092     7.722708E-4
         1437.676     7.716696E-4
          1439.26     7.710651E-4
         1440.847     7.703941E-4
         1442.435     7.696646E-4
         1444.024     7.689313E-4
         1445.617     7.681929E-4
          1447.21     7.674505E-4
         1448.805     7.667033E-4
         1450.402     7.659088E-4
         1452.001     7.649822E-4
         1453.602     7.640499E-4
         1455.205     7.631132E-4
         1456.808     7.621725E-4
         1458.414     7.612263E-4
         1460.022     7.602726E-4
         1461.631     7.591045E-4
         1463.243     7.579314E-4
         1464.856     7.567534E-4
          1466.47     7.555708E-4
         1468.086     7.543825E-4
         1469.706     7.531885E-4
         1471.325     7.517694E-4
         1472.947     7.502951E-4
         1474.571     7.488154E-4
         1476.196     7.473308E-4
         1477.824     7.458394E-4
         1479.453     7.443437E-4
         1481.083     7.426346E-4
         1482.716     7.408138E-4
          1484.35     7.389875E-4
         1485.987     7.371551E-4
         1487.625     7.358766E-4
         1489.264     7.354923E-4
         1490.906     7.348916E-4
         1492.549     7.341111E-4
         1494.195     7.333130E-4
         1495.842     7.324973E-4
         1497.491     7.316641E-4
         1499.142     7.308131E-4
         1500.794     7.288601E-4
         1502.449     7.257136E-4
         1504.105     7.225528E-4
         1505.763     7.193736E-4
         1507.423     7.161775E-4
         1509.084     7.129665E-4
         1510.748     7.096100E-4
         1512.414     7.060854E-4
          1514.08     7.025463E-4
         1515.749     6.989901E-4
         1517.419     6.954199E-4
         1519.093     6.918306E-4
         1520.768     6.881528E-4
         1522.444     6.843712E-4
         1524.122     6.805767E-4
         1525.802     6.767663E-4
         1527.484     6.729418E-4
         1529.168     6.691032E-4
         1530.854     6.652148E-4
          1532.54     6.612797E-4
          1534.23     6.573296E-4
         1535.921     6.533667E-4
         1537.615     6.493893E-4
          1539.31     6.454032E-4
         1541.006     6.414205E-4
         1542.705     6.374374E-4
         1544.405     6.334447E-4
         1546.109     6.284209E-4
         1547.812     6.228692E-4
         1549.518     6.173321E-4
         1551.227     6.118938E-4
         1552.936     6.065074E-4
         1554.648     6.011353E-4
         1556.363     5.957772E-4
         1558.078     5.904411E-4
         1559.795     5.851199E-4
         1561.515     5.799921E-4
         1563.235     5.749069E-4
         1564.958     5.698354E-4
         1566.685     5.647771E-4
         1568.411     5.597398E-4
          1570.14     5.547373E-4
         1571.871     5.499902E-4
         1573.603     5.452601E-4
         1575.338     5.405422E-4
         1577.075     5.358366E-4
         1578.813     5.311500E-4
         1580.553     5.265832E-4
         1582.295     5.222621E-4
         1584.039     5.179510E-4
         1585.785     5.136529E-4
         1587.534     5.093674E-4
         1589.284     5.050947E-4
         1591.036     5.010638E-4
          1592.79     4.972024E-4
         1594.545     4.933535E-4
         1596.303     4.895132E-4
         1598.062     4.856833E-4
         1599.824     4.818640E-4
         1601.588     4.776589E-4
         1603.353     4.734268E-4
          1605.12     4.692078E-4
          1606.89     4.650038E-4
         1608.661     4.608150E-4
         1610.434     4.567502E-4
          1612.21     4.530323E-4
         1613.986     4.493275E-4
         1615.765     4.456321E-4
         1617.548     4.419458E-4
          1619.33     4.382747E-4
         1621.115     4.348886E-4
         1622.902     4.316761E-4
          1624.69     4.284724E-4
         1626.482     4.252731E-4
         1628.275     4.220839E-4
         1630.069     4.189179E-4
         1631.867     4.161789E-4
         1633.665     4.134452E-4
         1635.466     4.107121E-4
         1637.269     4.079837E-4
         1639.074     4.052590E-4
          1640.88     4.027545E-4
         1642.689     4.004764E-4
           1644.5     3.981981E-4
         1646.313     3.959197E-4
         1648.128     3.936645E-4
         1649.944     3.917176E-4
         1651.763     3.901928E-4
         1653.585     3.886737E-4
         1655.407     3.871493E-4
         1657.232     3.856169E-4
         1659.058     3.840783E-4
         1660.888     3.827239E-4
         1662.719     3.815660E-4
         1664.552     3.803987E-4
         1666.386     3.792227E-4
         1668.223     3.780364E-4
         1670.062     3.768524E-4
         1671.903     3.759916E-4
         1673.746     3.751194E-4
          1675.59     3.742361E-4
         1677.437     3.733409E-4
         1679.287     3.724339E-4
         1681.139     3.716972E-4
         1682.991     3.710623E-4
         1684.847     3.704139E-4
         1686.704     3.697519E-4
         1688.563     3.690767E-4
         1690.425     3.684441E-4
         1692.287     3.679905E-4
         1694.153     3.675215E-4
         1696.021     3.670372E-4
          1697.89     3.665379E-4
         1699.762     3.660225E-4
         1701.636     3.661067E-4
         1703.512     3.662690E-4
         1705.389     3.664199E-4
         1707.269     3.665597E-4
         1709.151     3.666880E-4
         1711.035     3.669031E-4
         1712.922     3.671870E-4
         1714.809     3.674587E-4
         1716.699     3.677182E-4
         1718.592     3.679653E-4
         1720.485     3.682355E-4
         1722.383     3.685974E-4
         1724.281     3.689456E-4
         1726.182     3.692808E-4
         1728.086     3.696028E-4
          1729.99     3.699110E-4
         1731.897     3.703193E-4
         1733.806     3.707141E-4
         1735.718     3.710945E-4
          1737.63     3.714604E-4
         1739.546     3.718118E-4
         1741.463     3.722135E-4
         1743.383     3.726203E-4
         1745.305     3.730117E-4
         1747.228     3.733874E-4
         1749.154     3.737477E-4
         1751.084     3.737647E-4
         1753.013     3.735104E-4
         1754.946     3.732395E-4
          1756.88     3.729522E-4
         1758.817     3.726484E-4
         1760.756     3.723465E-4
         1762.697     3.720570E-4
         1764.639     3.717502E-4
         1766.585     3.714261E-4
         1768.532     3.710843E-4
         1770.482     3.707365E-4
         1772.434     3.704054E-4
         1774.387     3.700561E-4
         1776.343     3.696888E-4
         1778.301     3.693028E-4
         1780.262     3.689035E-4
         1782.224     3.685221E-4
         1784.189     3.681213E-4
         1786.156     3.677013E-4
         1788.124     3.672619E-4
         1790.096     3.668048E-4
         1792.068     3.663703E-4
         1794.044     3.659152E-4
         1796.022     3.654399E-4
         1798.001     3.649443E-4
         1799.984     3.644275E-4
         1801.968     3.623193E-4
         1803.954     3.601582E-4
         1805.942     3.579578E-4
         1807.933     3.557159E-4
         1809.926     3.534331E-4
         1811.922     3.511461E-4
         1813.919     3.488185E-4
         1815.918     3.464498E-4
          1817.92     3.440369E-4
         1819.925     3.415800E-4
          1821.93     3.391153E-4
         1823.938     3.366066E-4
         1825.948     3.340543E-4
         1827.962     3.314549E-4
         1829.976     3.288128E-4
         1831.995     3.261551E-4
         1834.013     3.234542E-4
         1836.035     3.207050E-4
         1838.059     3.179087E-4
         1840.084     3.150675E-4
         1842.113     3.122052E-4
         1844.144     3.092940E-4
         1846.177     3.063338E-4
         1848.212     3.033240E-4
         1850.248     3.002692E-4
         1852.288     2.971876E-4
          1854.33     2.940546E-4
         1856.375     2.908683E-4
         1858.421     2.876333E-4
         1860.469     2.843506E-4
          1862.52     2.810374E-4
         1864.573     2.776688E-4
         1866.628     2.742459E-4
         1868.686     2.707684E-4
         1870.746     2.672445E-4
         1872.808     2.636798E-4
         1874.872     2.600604E-4
         1876.939     2.563824E-4
         1879.008     2.526463E-4
         1881.079     2.486528E-4
         1883.153     2.446174E-4
         1885.229     2.405290E-4
         1887.307     2.363898E-4
         1889.387     2.321950E-4
         1891.471     2.279580E-4
         1893.555     2.236761E-4
         1895.643     2.193370E-4
         1897.732     2.149430E-4
         1899.823     2.104956E-4
         1901.919     2.085487E-4
         1904.014     2.068110E-4
         1906.113     2.050451E-4
         1908.215     2.032519E-4
         1910.317     2.014344E-4
         1912.424     1.996016E-4
         1914.532     1.977422E-4
         1916.643     1.958528E-4
         1918.755     1.939368E-4
          1920.87     1.919966E-4
         1922.988     1.900352E-4
         1925.107     1.880455E-4
          1927.23     1.860246E-4
         1929.354     1.839762E-4
         1931.481     1.819068E-4
          1933.61     1.798115E-4
          1935.74     1.776872E-4
         1937.875     1.755302E-4
         1940.011     1.733449E-4
         1942.149     1.711371E-4
          1944.29     1.688981E-4
         1946.434     1.666279E-4
          1948.58     1.643263E-4
         1950.728     1.619970E-4
         1952.878     1.596435E-4
          1955.03     1.572588E-4
         1957.185     1.548406E-4
         1959.343     1.523900E-4
         1961.503     1.499108E-4
         1963.665     1.474004E-4
         1965.829     1.448581E-4
         1967.996     1.422813E-4
         1970.167     1.396702E-4
         1972.339     1.370342E-4
         1974.512     1.343653E-4
         1976.689     1.316609E-4
         1978.868     1.289222E-4
         1981.049     1.261510E-4
         1983.233     1.233473E-4
         1985.418     1.205102E-4
         1987.607     1.176362E-4
         1989.798     1.147271E-4
         1991.992     1.113681E-4
         1994.188     1.079264E-4
         1996.386     1.044441E-4
         1998.586     1.009225E-4
         2000.789     9.801477E-5
         2002.996     9.625233E-5
         2005.203     9.446532E-5
         2007.414     9.265089E-5
         2009.627     9.080976E-5
         2011.841     8.835356E-5
          2014.06     8.574018E-5
         2016.279     8.309351E-5
         2018.502     8.040918E-5
         2020.727     7.776752E-5
         2022.955     7.525439E-5
         2025.185     7.270736E-5
         2027.417     7.012605E-5
         2029.652     6.751055E-5
         2031.889     6.528550E-5
         2034.129     6.310833E-5
         2036.371     6.090205E-5
         2038.616     5.866679E-5
         2040.864     5.659994E-5
         2043.112     5.482560E-5
         2045.365     5.302703E-5
         2047.621     5.120391E-5
         2049.877     4.935903E-5
         2052.137     4.824269E-5
         2054.399     4.715519E-5
         2056.664     4.605304E-5
         2058.931     4.493603E-5
         2061.201     4.336916E-5
         2063.472     4.139371E-5
         2065.747     3.939324E-5
         2068.024     3.736824E-5
         2070.304     3.535576E-5
         2072.586     3.356117E-5
         2074.871     3.174544E-5
         2077.157     2.990884E-5
         2079.447     2.804989E-5
          2081.74     2.682385E-5
         2084.034     2.579382E-5
         2086.332     2.475119E-5
         2088.632     2.369622E-5
         2090.933     2.238895E-5
          2093.24     2.071023E-5
         2095.546     1.901484E-5
         2097.856     1.729998E-5
         2100.169     1.561026E-5
         2102.483     1.446551E-5
         2104.802     1.330718E-5
         2107.121     1.213777E-5
         2109.444     1.095523E-5
         2111.769     9.888846E-6
         2114.097     8.852053E-6
         2116.428     7.804707E-6
          2118.76     6.747203E-6
         2121.097     5.944866E-6
         2123.434     5.438448E-6
         2125.775     4.926789E-6
         2128.118     4.410075E-6
         2130.463     3.931253E-6
         2132.813     3.621674E-6
         2135.163     3.309471E-6
         2137.518     2.994013E-6
         2139.875     2.676524E-6
         2142.231     2.475206E-6
         2144.594     2.278346E-6
         2146.958     2.079663E-6
         2149.325     1.879065E-6
         2151.693     1.730519E-6
         2154.065     1.602132E-6
          2156.44     1.472567E-6
         2158.817     1.341805E-6
         2161.197     1.233361E-6
         2163.578     1.147380E-6
         2165.964     1.060595E-6
         2168.353     9.730174E-7
         2170.743     8.939920E-7
         2173.135     8.349853E-7
         2175.529     7.754984E-7
         2177.929     7.154683E-7
         2180.329     6.576905E-7
         2182.733     6.163228E-7
         2185.138     5.746866E-7
         2187.547     5.327167E-7
         2189.959     4.904332E-7
         2192.372     4.607265E-7
         2194.789     4.310279E-7
         2197.208     4.011236E-7
         2199.632     3.710036E-7
         2202.056     3.504012E-7
         2204.482     3.311129E-7
         2206.912     3.113683E-7
         2209.345     2.911741E-7
         2211.782     2.752336E-7
         2214.219     2.607052E-7
          2216.66     2.458464E-7
         2219.104     2.306622E-7
         2221.549     2.181166E-7
         2223.998     2.070282E-7
         2226.449     1.957031E-7
         2228.904     1.841386E-7
         2231.361     1.742381E-7
          2233.82     1.656848E-7
         2236.284     1.569476E-7
         2238.748     1.480426E-7
         2241.217     1.402121E-7
         2243.687     1.335433E-7
         2246.159     1.267434E-7
         2248.636     1.198047E-7
         2251.114     1.136031E-7
         2253.597     1.083467E-7
          2256.08     1.029964E-7
         2258.567     9.754388E-8
         2261.057     9.261218E-8
         2263.548     8.844371E-8
         2266.045     8.419503E-8
         2268.542     7.987449E-8
         2271.042     7.594363E-8
         2273.546     7.260546E-8
         2276.051     6.921071E-8
         2278.562     6.575407E-8
         2281.072     6.261462E-8
         2283.588     5.992410E-8
         2286.104     5.719076E-8
         2288.623     5.441158E-8
         2291.147     5.189429E-8
         2293.672     4.971321E-8
         2296.202     4.749592E-8
         2298.732     4.526219E-8
         2301.266     4.325880E-8
         2303.803     4.149379E-8
         2306.342     3.969955E-8
         2308.885     3.787351E-8
         2311.431     3.625861E-8
         2313.979     3.480610E-8
          2316.53     3.332953E-8
         2319.082     3.182961E-8
         2321.639     3.052443E-8
         2324.198     2.932230E-8
          2326.76     2.810079E-8
         2329.325     2.685989E-8
         2331.892     2.580322E-8
         2334.463     2.480254E-8
         2337.038     2.378557E-8
         2339.613     2.275400E-8
         2342.193     2.189559E-8
         2344.774     2.105871E-8
         2347.357     2.020915E-8
         2349.947     1.934585E-8
         2352.536     1.864861E-8
         2355.131     1.794406E-8
         2357.726     1.722981E-8
         2360.326     1.652288E-8
         2362.927     1.593665E-8
         2365.531     1.534187E-8
          2368.14     1.473797E-8
         2370.749     1.416098E-8
         2373.364     1.366265E-8
         2375.979     1.315784E-8
         2378.598     1.264572E-8
          2381.22     1.217336E-8
         2383.844     1.174899E-8
         2386.473     1.131837E-8
         2389.103     1.088238E-8
         2391.737     1.049537E-8
         2394.373     1.013188E-8
         2397.012     9.763744E-9
         2399.656     9.390459E-9
           2402.3     9.073228E-9
         2404.949     8.760738E-9
           2407.6     8.444448E-9
         2410.252     8.129970E-9
          2412.91     7.863973E-9
          2415.57     7.594819E-9
         2418.233     7.322349E-9
         2420.898     7.063103E-9
         2423.567     6.833143E-9
         2426.238     6.600436E-9
         2428.913     6.364924E-9
         2431.591     6.151146E-9
         2434.271     5.951712E-9
         2436.954     5.750056E-9
         2439.641     5.545853E-9
         2442.331     5.369768E-9
         2445.022     5.196443E-9
         2447.718     5.021044E-9
         2450.416     4.848239E-9
         2453.117     4.698713E-9
         2455.822     4.547506E-9
         2458.528     4.394681E-9
         2461.239     4.251595E-9
         2463.951     4.120903E-9
         2466.669     3.988642E-9
         2469.387     3.855054E-9
         2472.108     3.736849E-9
         2474.834     3.622172E-9
         2477.561     3.506367E-9
         2480.294     3.391194E-9
         2483.027     3.291609E-9
         2485.764     3.190900E-9
         2488.504     3.089106E-9
         2491.246     2.993602E-9
         2493.994     2.905814E-9
         2496.742     2.817184E-9
         2499.494     2.727561E-9
          2502.25     2.648346E-9
         2505.007     2.570901E-9
          2507.77     2.492554E-9
         2510.533     2.415786E-9
         2513.302     2.347914E-9
         2516.072     2.279389E-9
         2518.844     2.210143E-9
         2521.622     2.146198E-9
         2524.401     2.086013E-9
         2527.185     2.025135E-9
         2529.969     1.963673E-9
         2532.759     1.910601E-9
         2535.551     1.857067E-9
         2538.344     1.801029E-9
         2541.144     1.745677E-9
         2543.946     1.694738E-9
          2546.75     1.643517E-9
         2549.558     1.592012E-9
         2552.367     1.546074E-9
          2555.18     1.500945E-9
         2557.997     1.455564E-9
         2560.817     1.411672E-9
         2563.639     1.371835E-9
         2566.465     1.331753E-9
         2569.294     1.291449E-9
         2572.128     1.254857E-9
         2574.962     1.219407E-9
           2577.8     1.183762E-9
         2580.643     1.148923E-9
         2583.486     1.117496E-9
         2586.336     1.085859E-9
         2589.186     1.054079E-9
         2592.039     1.025004E-9
         2594.897    9.968945E-10
         2597.757    9.686534E-10
         2600.622    9.409949E-10
         2603.487    9.159937E-10
         2606.357    8.908352E-10
         2609.231    8.655330E-10
         2612.106    8.423977E-10
         2614.985    8.199580E-10
          2617.87    7.973763E-10
         2620.754    7.754090E-10
         2623.643    7.553471E-10
         2626.536    7.351673E-10
         2629.431    7.148698E-10
         2632.328    6.964300E-10
         2635.232    6.783439E-10
         2638.135    6.601694E-10
         2641.045    6.426427E-10
         2643.955    6.264160E-10
          2646.87    6.100832E-10
         2649.788    5.936547E-10
         2652.708    5.789224E-10
         2655.633    5.642273E-10
          2658.56    5.494587E-10
          2661.49    5.354637E-10
         2664.424    5.222245E-10
          2667.36    5.089127E-10
         2670.302    4.956633E-10
         2673.244    4.837102E-10
         2676.193    4.716727E-10
         2679.142    4.595760E-10
         2682.094    4.483709E-10
         2685.052    4.374843E-10
         2688.012    4.265385E-10
         2690.975    4.159245E-10
          2693.94    4.060646E-10
          2696.91    3.961415E-10
         2699.883    3.861594E-10
         2702.858    3.778545E-10
         2705.839    3.695281E-10
         2708.822    3.611215E-10
         2711.807    3.532247E-10
         2714.796    3.456303E-10
         2717.789    3.379585E-10
         2720.785    3.304409E-10
         2723.785    3.235018E-10
         2726.788    3.164923E-10
         2729.792    3.094158E-10
         2732.802    3.030058E-10
         2735.814    2.965865E-10
          2738.83    2.901027E-10
         2741.849    2.839974E-10
         2744.872    2.781125E-10
         2747.898    2.721685E-10
         2750.926    2.661337E-10
         2753.958    2.599857E-10
         2756.994    2.538196E-10
         2760.034    2.476412E-10
         2763.076    2.420226E-10
         2766.121    2.363902E-10
         2769.172    2.307349E-10
         2772.223    2.254536E-10
         2775.281    2.202954E-10
         2778.339    2.151271E-10
           2781.4    2.101599E-10
         2784.468    2.054318E-10
         2787.536    2.006944E-10
          2790.61    1.960237E-10
         2793.685    1.916877E-10
         2796.765    1.873373E-10
         2799.848    1.829746E-10
         2802.933    1.789714E-10
         2806.025    1.749724E-10
         2809.117    1.709660E-10
         2812.213    1.671979E-10
         2815.314    1.635196E-10
         2818.417    1.598313E-10
         2821.524    1.562893E-10
         2824.633    1.529026E-10
         2827.749    1.495033E-10
         2830.865    1.461792E-10
         2833.985    1.430560E-10
         2837.109    1.399246E-10
         2840.236    1.368059E-10
         2843.368    1.339200E-10
         2846.501    1.310293E-10
         2849.641    1.281282E-10
         2852.781    1.254374E-10
         2855.924    1.227675E-10
         2859.074    1.200880E-10
         2862.226    1.175589E-10
         2865.381    1.150885E-10
          2868.54    1.126117E-10
         2871.701    1.102377E-10
         2874.866    1.079493E-10
         2878.036    1.056550E-10
         2881.208    1.034261E-10
         2884.385    1.013068E-10
         2887.563    9.918331E-11
         2890.748    9.709193E-11
         2893.935    9.512516E-11
         2897.123    9.315464E-11
         2900.317    9.117367E-11
         2903.515    8.914981E-11
         2906.715    8.712975E-11
          2909.92    8.511317E-11
         2913.126    8.323819E-11
         2916.338    8.136910E-11
         2919.552    7.950373E-11
         2922.773    7.775146E-11
         2925.993    7.602211E-11
         2929.217    7.429601E-11
         2932.448    7.266021E-11
         2935.679    7.105745E-11
         2938.916    6.945709E-11
         2942.155    6.793210E-11
         2945.399    6.644639E-11
         2948.646    6.496362E-11
         2951.895    6.354123E-11
         2955.151    6.216085E-11
         2958.407    6.078478E-11
         2961.668    5.945736E-11
         2964.933    5.817714E-11
           2968.2    5.690021E-11
         2971.474    5.566177E-11
         2974.748    5.447224E-11
         2978.027    5.328477E-11
          2981.31    5.212998E-11
         2984.595    5.102348E-11
         2987.887    4.991849E-11
         2991.179    4.884201E-11
         2994.477    4.781209E-11
         2997.778    4.678460E-11
         3001.083    4.578024E-11
         3004.391    4.482102E-11
         3007.702    4.386455E-11
         3011.019    4.292743E-11
         3014.337    4.203419E-11
         3017.658    4.114314E-11
         3020.987    4.026925E-11
         3024.317    3.943570E-11
         3027.651    3.860420E-11
         3030.987    3.778972E-11
         3034.328    3.701173E-11
         3037.673    3.623568E-11
         3041.022    3.547558E-11
         3044.375    3.474932E-11
         3047.731    3.402496E-11
         3051.089    3.331640E-11
         3054.454    3.263734E-11
          3057.82    3.196068E-11
         3061.191    3.129932E-11
         3064.565    3.066487E-11
         3067.944    3.003211E-11
         3071.326    2.941520E-11
          3074.71    2.882214E-11
           3078.1    2.823042E-11
         3081.495    2.765454E-11
          3084.89    2.709928E-11
         3088.292    2.654503E-11
         3091.696    2.600814E-11
         3095.102    2.548822E-11
         3098.516    2.496919E-11
          3101.93    2.452534E-11
         3105.351    2.413616E-11
         3108.773    2.374538E-11
           3112.2    2.336960E-11
         3115.631    2.300149E-11
         3119.064    2.263165E-11
         3122.504    2.227785E-11
         3125.945    2.192945E-11
         3129.391    2.157905E-11
         3132.841    2.124612E-11
         3136.294    2.091560E-11
         3139.752    2.058337E-11
         3143.211    2.027033E-11
         3146.678    1.995698E-11
         3150.145    1.964320E-11
         3153.618    1.934736E-11
         3157.095    1.905002E-11
         3160.573    1.875452E-11
         3164.059    1.847355E-11
         3167.546    1.819142E-11
         3171.039    1.791297E-11
         3174.533    1.764616E-11
         3178.031    1.737799E-11
         3181.536    1.711585E-11
         3185.044    1.686231E-11
         3188.555    1.660748E-11
         3192.068    1.636095E-11
         3195.587    1.611966E-11
          3199.11    1.587713E-11
         3202.637    1.564484E-11
         3206.167    1.541526E-11
           3209.7    1.518460E-11
         3213.239    1.496606E-11
         3216.781    1.474763E-11
         3220.327    1.452932E-11
         3223.877    1.432218E-11
         3227.431    1.411394E-11
         3230.989    1.390823E-11
         3234.549    1.371085E-11
         3238.115    1.351234E-11
         3241.685    1.331867E-11
         3245.259    1.313054E-11
         3248.836    1.294143E-11
         3252.418    1.275900E-11
         3256.003    1.257932E-11
         3259.591    1.239879E-11
         3263.186    1.222687E-11
         3266.781    1.205548E-11
         3270.383    1.188421E-11
         3273.988    1.172137E-11
         3277.596    1.155776E-11
         3281.209    1.139642E-11
         3284.826    1.124068E-11
         3288.449    1.108403E-11
         3292.073    1.093210E-11
           3295.7    1.078339E-11
         3299.335    1.063376E-11
          3302.97    1.049064E-11
         3306.614    1.034825E-11
         3310.257    1.020584E-11
         3313.906    1.007031E-11
         3317.559    9.934084E-12
         3321.215    9.799826E-12
         3324.878    9.670027E-12
         3328.542    9.539684E-12
         3332.211    9.413145E-12
         3335.885    9.288954E-12
          3339.56    9.164173E-12
         3343.244    9.044865E-12
         3346.927    8.925905E-12
         3350.619    8.807315E-12
         3354.311    8.693851E-12
         3358.007    8.579777E-12
          3361.71    8.467942E-12
         3365.415    8.359065E-12
         3369.126    8.249495E-12
         3372.839    8.144231E-12
         3376.557    8.039823E-12
         3380.279    7.935290E-12
         3384.004    7.835603E-12
         3387.736    7.735275E-12
         3391.469    7.636712E-12
         3395.208    7.540988E-12
         3398.953    7.444686E-12
         3402.698    7.351764E-12
         3406.449    7.259772E-12
         3410.204    7.167541E-12
         3413.964    7.079566E-12
         3417.727    6.991114E-12
         3421.493    6.904157E-12
         3425.265    6.819644E-12
         3429.043    6.734624E-12
         3432.821    6.652664E-12
         3436.606    6.571379E-12
         3440.394    6.490097E-12
         3444.185    6.412334E-12
         3447.984    6.334057E-12
         3451.783    6.257411E-12
         3455.588    6.182560E-12
         3459.398    6.107285E-12
         3463.211    6.034936E-12
         3467.029    5.962802E-12
          3470.85    5.891154E-12
         3474.678    5.822052E-12
         3478.506    5.752622E-12
         3482.339    5.685069E-12
          3486.18    5.618513E-12
         3490.023    5.551636E-12
         3493.871    5.487814E-12
          3497.72    5.423654E-12
         3501.576    5.360485E-12
         3505.437    5.298976E-12
         3509.301    5.237104E-12
          3513.17    5.177530E-12
         3517.041    5.118226E-12
         3520.918    5.059256E-12
         3524.799    5.002270E-12
         3528.685    4.944944E-12
         3532.575    4.889303E-12
         3536.468    4.834399E-12
         3540.368    4.779365E-12
         3544.269    4.726543E-12
         3548.176    4.673377E-12
         3552.088    4.621349E-12
         3556.004    4.570289E-12
         3559.924    4.518920E-12
         3563.846    4.469846E-12
         3567.777    4.420477E-12
         3571.708    4.371926E-12
         3575.644    4.324478E-12
         3579.588    4.276697E-12
         3583.534    4.230808E-12
         3587.484    4.184895E-12
         3591.439    4.139522E-12
         3595.396    4.095340E-12
          3599.36    4.050863E-12
         3603.328    4.007982E-12
         3607.301    3.965196E-12
         3611.277    3.922802E-12
         3615.256    3.881555E-12
         3619.242    3.840035E-12
         3623.234    3.799937E-12
         3627.226    3.760031E-12
         3631.223    3.720448E-12
         3635.228    3.681892E-12
         3639.237    3.643099E-12
         3643.247    3.605604E-12
         3647.261    3.568229E-12
         3651.284    3.531165E-12
         3655.307    3.495148E-12
         3659.335    3.458904E-12
         3663.371    3.423830E-12
         3667.408    3.388855E-12
         3671.453    3.354215E-12
         3675.498    3.320448E-12
         3679.552    3.286433E-12
         3683.606    3.253652E-12
         3687.665    3.220843E-12
         3691.732    3.188445E-12
           3695.8    3.156759E-12
         3699.876    3.124841E-12
         3703.953    3.094164E-12
         3708.039    3.063305E-12
         3712.124    3.033025E-12
         3716.215    3.003240E-12
         3720.313    2.973340E-12
         3724.413    2.944535E-12
         3728.521    2.915519E-12
         3732.629    2.887189E-12
         3736.746    2.859129E-12
         3740.863    2.831184E-12
         3744.985    2.804065E-12
         3749.116    2.776745E-12
         3753.247    2.750239E-12
         3757.386    2.723798E-12
         3761.526    2.697638E-12
         3765.675    2.672013E-12
         3769.824    2.646250E-12
         3773.978    2.621444E-12
         3778.141    2.596501E-12
         3782.304    2.572013E-12
         3786.473    2.547831E-12
         3790.648    2.523653E-12
         3794.824    2.500210E-12
          3799.01    2.476594E-12
         3803.196    2.453659E-12
         3807.389    2.430813E-12
         3811.586    2.408184E-12
          3815.79    2.385998E-12
         3819.994    2.363690E-12
         3824.203    2.342167E-12
         3828.419    2.320498E-12
          3832.64    2.299264E-12
         3836.865    2.278240E-12
         3841.095    2.257315E-12
         3845.331    2.236909E-12
         3849.568    2.216393E-12
          3853.81    2.196499E-12
         3858.058    2.176555E-12
         3862.312    2.156924E-12
         3866.572    2.137529E-12
         3870.832    2.118188E-12
         3875.099    2.099364E-12
         3879.369    2.080429E-12
         3883.646    2.062007E-12
         3887.927    2.043583E-12
         3892.213    2.025432E-12
         3896.504    2.007535E-12
           3900.8    1.989656E-12
           3905.1    1.972240E-12
         3909.403    1.954722E-12
         3913.712    1.937673E-12
         3918.027    1.920613E-12
         3922.346    1.903804E-12
          3926.67    1.887193E-12
         3930.999    1.870633E-12
         3935.333    1.854485E-12
         3939.669    1.838245E-12
         3944.012    1.822439E-12
          3948.36    1.806580E-12
         3952.712    1.791012E-12
          3957.07    1.775585E-12
         3961.432    1.760246E-12
         3965.799    1.745188E-12
         3970.169    1.730071E-12
         3974.546    1.715416E-12
         3978.927    1.700672E-12
         3983.314    1.686252E-12
         3987.705    1.671878E-12
         3992.101    1.657656E-12
           3996.5    1.643615E-12
         4000.906    1.628860E-12
         4005.316    1.611651E-12
         4009.732    1.594426E-12
         4014.152    1.577647E-12
         4018.577    1.560884E-12
         4023.008    1.544425E-12
          4027.44    1.528113E-12
          4031.88    1.511973E-12
         4036.325    1.496084E-12
         4040.775    1.480260E-12
         4045.229    1.464784E-12
         4049.689    1.449298E-12
         4054.153    1.434204E-12
          4058.62    1.419138E-12
         4063.094    1.404330E-12
         4067.574    1.389638E-12
         4072.058    1.375119E-12
         4076.547    1.360807E-12
         4081.041    1.346577E-12
         4085.538    1.332640E-12
         4090.042    1.318693E-12
         4094.548    1.305131E-12
         4099.064    1.291547E-12
         4103.583    1.278228E-12
         4108.107    1.264972E-12
         4112.636    1.251923E-12
         4117.165    1.239035E-12
         4121.706    1.226239E-12
          4126.25    1.213640E-12
         4130.799    1.201096E-12
         4135.353    1.188827E-12
         4139.911    1.176555E-12
         4144.473    1.164607E-12
          4149.04    1.152663E-12
         4153.616    1.140922E-12
         4158.195    1.129243E-12
         4162.779    1.117747E-12
         4167.366    1.106375E-12
         4171.962    1.095110E-12
         4176.559    1.084014E-12
         4181.163    1.072985E-12
         4185.772    1.062167E-12
         4190.385    1.051374E-12
         4195.006    1.040808E-12
         4199.629    1.030251E-12
         4204.261    1.021500E-12
         4208.894    1.012886E-12
         4213.531    1.004439E-12
         4218.178    9.960145E-13
         4222.826    9.877154E-13
         4227.484    9.794740E-13
         4232.142    9.713237E-13
          4236.81    9.632669E-13
         4241.478    9.552623E-13
         4246.151    9.473874E-13
         4250.835    9.395171E-13
         4255.519    9.318208E-13
         4260.212    9.240984E-13
         4264.907    9.165595E-13
         4269.606    9.089951E-13
         4274.315    9.015988E-13
         4279.025    8.942020E-13
         4283.744    8.869349E-13
         4288.464    8.796916E-13
         4293.194    8.725545E-13
         4297.925    8.654663E-13
         4302.661    8.584637E-13
         4307.406    8.515170E-13
         4312.152    8.446420E-13
         4316.909    8.378432E-13
         4321.665    8.310972E-13
         4326.432    8.244489E-13
         4331.199    8.178312E-13
         4335.971    8.113298E-13
         4340.753    8.048264E-13
         4345.537    7.984496E-13
          4350.33    7.920569E-13
         4355.123    7.858081E-13
         4359.926    7.795325E-13
          4364.73    7.734207E-13
          4369.54    7.672911E-13
         4374.359    7.612803E-13
         4379.179    7.552712E-13
         4384.009    7.493695E-13
          4388.84    7.434816E-13
          4393.68    7.376852E-13
         4398.521    7.319113E-13
         4403.368    7.262348E-13
         4408.225    7.205849E-13
         4413.082    7.150112E-13
          4417.95    7.094643E-13
         4422.817    7.039918E-13
         4427.696    6.985584E-13
         4432.574    6.931846E-13
         4437.458    6.878567E-13
         4442.353    6.825774E-13
         4447.248    6.773637E-13
         4452.153    6.721832E-13
         4457.059    6.670637E-13
          4461.97    6.619821E-13
         4466.891    6.569614E-13
         4471.813    6.519769E-13
         4476.745    6.470536E-13
         4481.678    6.421635E-13
         4486.618    6.373398E-13
         4491.564    6.325391E-13
         4496.514    6.278095E-13
         4501.473    6.238352E-13
         4506.433    6.216576E-13
         4511.401    6.194569E-13
         4516.375    6.172826E-13
         4521.355    6.150896E-13
         4526.337    6.129395E-13
         4531.325    6.107662E-13
          4536.32    6.086199E-13
         4541.321    6.064527E-13
         4546.328    6.043191E-13
         4551.339    6.021684E-13
         4556.357    6.000585E-13
          4561.38    5.979274E-13
         4566.406    5.958231E-13
          4571.44    5.937004E-13
         4576.479    5.916078E-13
         4581.527    5.894987E-13
         4586.575    5.874196E-13
         4591.632    5.853269E-13
         4596.691    5.832621E-13
         4601.758    5.811860E-13
         4606.832    5.791316E-13
          4611.91    5.770711E-13
         4616.994    5.750305E-13
         4622.084    5.729831E-13
          4627.18    5.709464E-13
         4632.278    5.689156E-13
         4637.385    5.669000E-13
         4642.497    5.648901E-13
         4647.615    5.628889E-13
         4652.738    5.608956E-13
         4657.868    5.589045E-13
         4663.002    5.569225E-13
         4668.141    5.549363E-13
         4673.287    5.529736E-13
         4678.438    5.510070E-13
         4683.596    5.490650E-13
         4688.759    5.471116E-13
         4693.928    5.451801E-13
           4699.1    5.432302E-13
         4704.281    5.413219E-13
         4709.467    5.393926E-13
         4714.658    5.374950E-13
         4719.856    5.355675E-13
         4725.059    5.336953E-13
         4730.268    5.317927E-13
          4735.48    5.299278E-13
         4740.701    5.280374E-13
         4745.927    5.261894E-13
         4751.159    5.243216E-13
         4756.396    5.224757E-13
          4761.64    5.206228E-13
         4766.889    5.187962E-13
         4772.142    5.169679E-13
         4777.402    5.151506E-13
         4782.669    5.133358E-13
         4787.941    5.115227E-13
          4793.22    5.097274E-13
         4798.504    5.079314E-13
         4803.791    5.061594E-13
         4809.087    5.043757E-13
         4814.389    5.026130E-13
         4819.696    5.008292E-13
         4825.009    4.990907E-13
         4830.328    4.973296E-13
         4835.653    4.956066E-13
         4840.981    4.938660E-13
         4846.318    4.921516E-13
         4851.661    4.904257E-13
         4857.009    4.887122E-13
         4862.364    4.870027E-13
         4867.724    4.853072E-13
          4873.09    4.836201E-13
         4878.457    4.819336E-13
         4883.838    4.802650E-13
         4889.222    4.785881E-13
         4894.612    4.769378E-13
         4900.008    4.752680E-13
         4905.409    4.736440E-13
         4910.814    4.720004E-13
         4916.228    4.703766E-13
         4921.648    4.687439E-13
         4927.074    4.671279E-13
         4932.505    4.655133E-13
          4937.94    4.639059E-13
         4943.386    4.623130E-13
         4948.833    4.607207E-13
         4954.289    4.591500E-13
          4959.75    4.575661E-13
         4965.216    4.560065E-13
         4970.692    4.544304E-13
         4976.169    4.528891E-13
         4981.658    4.513378E-13
         4987.146    4.498032E-13
         4992.642    4.482704E-13
         4998.148    4.467404E-13
         5003.656    4.454521E-13
         5009.174    4.442685E-13
         5014.694    4.431054E-13
         5020.219    4.419243E-13
         5025.756    4.407734E-13
         5031.294    4.396065E-13
         5036.843    4.384480E-13
         5042.394    4.372885E-13
         5047.955    4.361346E-13
         5053.517    4.349838E-13
         5059.085    4.338226E-13
         5064.665    4.326833E-13
         5070.246    4.315300E-13
         5075.838    4.303988E-13
         5081.431    4.292532E-13
         5087.036    4.281135E-13
         5092.641    4.269759E-13
         5098.252    4.258424E-13
         5103.875    4.247167E-13
         5109.499    4.235817E-13
         5115.134    4.224669E-13
         5120.771    4.213389E-13
         5126.418    4.202275E-13
         5132.067    4.191074E-13
         5137.722    4.179894E-13
         5143.389    4.168768E-13
         5149.056    4.157616E-13
         5154.735    4.146625E-13
         5160.415    4.135518E-13
         5166.107    4.124592E-13
         5171.799    4.113587E-13
         5177.498    4.102665E-13
         5183.208    4.091711E-13
         5188.919    4.080699E-13
         5194.643    4.069862E-13
         5200.366    4.058927E-13
         5206.102    4.048147E-13
         5211.838    4.037304E-13
         5217.581    4.026560E-13
         5223.336    4.015801E-13
         5229.091    4.004990E-13
         5234.859    3.994306E-13
         5240.627    3.983528E-13
         5246.407    3.972910E-13
         5252.188    3.962271E-13
         5257.975    3.951720E-13
         5263.774    3.941125E-13
         5269.574    3.930427E-13
         5275.383    3.919953E-13
         5281.199    3.909390E-13
         5287.018    3.898961E-13
          5292.85    3.888476E-13
         5298.682    3.877968E-13
         5304.523    3.867557E-13
         5310.371    3.857063E-13
         5316.228    3.846799E-13
         5322.085    3.836432E-13
          5327.95    3.826029E-13
         5333.826    3.815717E-13
         5339.703    3.805377E-13
          5345.59    3.795208E-13
         5351.483    3.784938E-13
         5357.385    3.774690E-13
         5363.289    3.764476E-13
         5369.198    3.754245E-13
         5375.117    3.744082E-13
         5381.042    3.733850E-13
         5386.978    3.723787E-13
         5392.914    3.713683E-13
         5398.858    3.703533E-13
         5404.807    3.693511E-13
         5410.766    3.683419E-13
          5416.73    3.673448E-13
         5422.702    3.663426E-13
          5428.68    3.653385E-13
         5434.665    3.643441E-13
         5440.656    3.633434E-13
         5446.651    3.623555E-13
         5452.655    3.613626E-13
         5458.666    3.603686E-13
         5464.684    3.593826E-13
         5470.708    3.583900E-13
         5476.739    3.574039E-13
         5482.777    3.564161E-13
         5488.818    3.554299E-13
         5494.869    3.544529E-13
         5500.926    3.534574E-13
         5506.991    3.523987E-13
         5513.062    3.513401E-13
         5519.139    3.502811E-13
         5525.221    3.492352E-13
         5531.312    3.481832E-13
          5537.41    3.471342E-13
         5543.514    3.460844E-13
         5549.625    3.450304E-13
         5555.743    3.439951E-13
         5561.868    3.429540E-13
         5567.996    3.419145E-13
         5574.134    3.408813E-13
         5580.279    3.398451E-13
         5586.431    3.388140E-13
          5592.59    3.377803E-13
         5598.755    3.367490E-13
         5604.927    3.353829E-13
         5611.103    3.339322E-13
         5617.289    3.324954E-13
         5623.481    3.310614E-13
         5629.681    3.296274E-13
         5635.887    3.282099E-13
           5642.1    3.267948E-13
         5648.316    3.253909E-13
         5654.543    3.239961E-13
         5660.777    3.226031E-13
         5667.018    3.212245E-13
         5673.265    3.198486E-13
         5679.519    3.184745E-13
          5685.78    3.171152E-13
         5692.045    3.157590E-13
          5698.32    3.144116E-13
         5704.602    3.130741E-13
         5710.891    3.117385E-13
         5717.187    3.104156E-13
         5723.489    3.090986E-13
         5729.799    3.077848E-13
         5736.112    3.064859E-13
         5742.436    3.051866E-13
         5748.766    3.038911E-13
         5755.104    3.026114E-13
         5761.448    3.013352E-13
           5767.8    3.000702E-13
         5774.155    2.988087E-13
         5780.521    2.975471E-13
         5786.893    2.963054E-13
         5793.272    2.950635E-13
         5799.659    2.938208E-13
         5806.053    2.925993E-13
         5812.453    2.913779E-13
         5818.858    2.901587E-13
         5825.272    2.889561E-13
         5831.694    2.877551E-13
         5838.123    2.865575E-13
         5844.559    2.853718E-13
         5851.002    2.841891E-13
         5857.453    2.830120E-13
         5863.907    2.818443E-13
         5870.368    2.806812E-13
         5876.843    2.795296E-13
         5883.321    2.783818E-13
         5889.807    2.772366E-13
           5896.3    2.761054E-13
           5902.8    2.749761E-13
         5909.304    2.738513E-13
         5915.819    2.727386E-13
          5922.34    2.716283E-13
         5928.869    2.705229E-13
         5935.405    2.694292E-13
         5941.945    2.683392E-13
         5948.492    2.672568E-13
         5955.053    2.661795E-13
         5961.618    2.651064E-13
          5968.19    2.640451E-13
         5974.767    2.629871E-13
         5981.356    2.619300E-13
         5987.947    2.608863E-13
         5994.548    2.598474E-13
         6001.157    2.587496E-13
         6007.769    2.573754E-13
         6014.396    2.560127E-13
         6021.022    2.546592E-13
         6027.663    2.533150E-13
         6034.308    2.519801E-13
         6040.954    2.506526E-13
         6047.617    2.493356E-13
          6054.28    2.480305E-13
         6060.958    2.467307E-13
         6067.636    2.454385E-13
         6074.329    2.441575E-13
         6081.021    2.428856E-13
         6087.722    2.416233E-13
         6094.437    2.403678E-13
         6101.152    2.391194E-13
         6107.878    2.378807E-13
         6114.611    2.366505E-13
         6121.355    2.354251E-13
           6128.1    2.342097E-13
         6134.853    2.330031E-13
         6141.616    2.318029E-13
         6148.386    2.306155E-13
         6155.167    2.294319E-13
          6161.95    2.282534E-13
         6168.746    2.270815E-13
          6175.54    2.259221E-13
         6182.348    2.247665E-13
         6189.163    2.236163E-13
         6195.986    2.224771E-13
          6202.82    2.213428E-13
         6209.655    2.202160E-13
         6216.497    2.190948E-13
          6223.35    2.179802E-13
         6230.211    2.168727E-13
         6237.083    2.157706E-13
         6243.955    2.146779E-13
         6250.838    2.135911E-13
         6257.729    2.125100E-13
         6264.624    2.114332E-13
          6271.53    2.103603E-13
         6278.444    2.092983E-13
         6285.366    2.082405E-13
         6292.294    2.071872E-13
         6299.231    2.061404E-13
         6306.176    2.051017E-13
         6313.124    2.040665E-13
         6320.084    2.030335E-13
         6327.051    2.020107E-13
         6334.026    2.009926E-13
         6341.009    1.999785E-13
         6347.999    1.989695E-13
         6354.994    1.979675E-13
            6362.    1.969684E-13
         6369.013    1.959727E-13
         6376.034    1.949850E-13
         6383.063    1.940018E-13
           6390.1    1.930228E-13
         6397.145    1.920491E-13
         6404.193    1.910786E-13
         6411.253    1.901110E-13
         6418.321    1.891503E-13
         6425.397    1.881937E-13
          6432.48    1.872405E-13
         6439.571    1.862918E-13
          6446.67    1.853486E-13
         6453.774    1.844098E-13
         6460.889    1.834740E-13
         6468.011    1.825388E-13
         6475.142    1.816098E-13
          6482.28    1.806856E-13
         6489.426    1.797671E-13
         6496.576    1.788484E-13
         6503.738    1.777675E-13
         6510.908    1.765416E-13
         6518.085    1.753234E-13
         6525.271    1.741104E-13
         6532.465    1.729024E-13
         6539.666    1.717002E-13
         6546.872    1.705107E-13
         6554.089    1.693251E-13
         6561.314    1.681449E-13
         6568.548    1.669753E-13
         6575.789    1.658085E-13
         6583.038    1.646494E-13
         6590.295    1.635000E-13
         6597.557    1.623579E-13
          6604.83    1.612203E-13
         6612.111    1.600876E-13
           6619.4    1.589603E-13
         6626.698    1.578469E-13
         6634.003    1.567368E-13
         6641.316    1.556311E-13
         6648.634    1.545385E-13
         6655.964    1.534476E-13
         6663.301    1.523642E-13
         6670.647    1.512897E-13
         6678.001    1.502215E-13
         6685.363    1.491606E-13
         6692.729    1.481057E-13
         6700.107    1.470549E-13
         6707.494    1.460139E-13
         6714.888    1.449799E-13
         6722.291    1.439528E-13
         6729.701    1.429336E-13
          6737.12    1.419195E-13
         6744.543    1.409125E-13
         6751.979    1.399118E-13
         6759.422    1.389184E-13
         6766.874    1.379305E-13
         6774.333    1.369506E-13
         6781.802    1.359774E-13
         6789.278    1.350093E-13
         6796.759    1.340502E-13
         6804.251    1.330969E-13
         6811.752    1.321497E-13
         6819.262    1.312093E-13
          6826.78    1.302771E-13
         6834.306    1.293511E-13
         6841.836    1.284316E-13
         6849.378    1.275184E-13
         6856.929    1.266123E-13
         6864.488    1.257108E-13
         6872.056    1.248152E-13
         6879.632    1.239283E-13
         6887.216    1.230485E-13
         6894.805    1.221749E-13
         6902.405    1.213060E-13
         6910.015    1.204412E-13
         6917.632    1.195866E-13
         6925.258    1.187379E-13
         6932.893    1.178959E-13
         6940.536    1.170610E-13
         6948.183    1.162312E-13
         6955.839    1.154067E-13
         6963.511    1.145885E-13
         6971.188    1.137778E-13
         6978.873    1.129734E-13
         6986.566    1.121752E-13
         6994.261    1.113831E-13
         7001.975    1.105598E-13
         7009.694    1.096415E-13
         7017.422    1.087292E-13
         7025.158    1.078253E-13
         7032.902    1.069301E-13
         7040.652    1.060439E-13
          7048.41    1.051629E-13
         7056.184    1.042904E-13
         7063.962    1.034256E-13
          7071.75    1.025675E-13
         7079.542    1.017164E-13
          7087.35    1.008722E-13
          7095.16    1.000370E-13
         7102.981    9.920847E-14
         7110.812    9.838595E-14
         7118.647    9.757092E-14
         7126.499    9.676222E-14
         7134.351    9.596166E-14
          7142.22    9.516665E-14
         7150.089    9.437725E-14
         7157.968    9.359663E-14
         7165.863    9.282171E-14
         7173.758    9.205456E-14
         7181.671    9.129299E-14
         7189.584    9.053640E-14
         7197.514    8.978797E-14
         7205.444    8.904603E-14
         7213.384    8.830960E-14
          7221.34    8.757836E-14
         7229.297    8.685603E-14
         7237.271    8.613685E-14
         7245.245    8.542501E-14
         7253.236    8.471858E-14
         7261.228    8.401828E-14
         7269.229    8.332366E-14
         7277.243    8.263637E-14
         7285.265    8.195341E-14
           7293.3    8.127539E-14
         7301.336    8.060417E-14
         7309.381    7.993857E-14
         7317.439    7.927986E-14
         7325.506    7.862495E-14
         7333.586    7.797499E-14
         7341.667    7.733178E-14
         7349.764    7.669297E-14
         7357.863    7.606001E-14
          7365.97    7.543343E-14
          7374.09    7.481084E-14
         7382.219    7.419255E-14
         7390.362    7.357998E-14
         7398.505    7.297354E-14
         7406.661    7.237262E-14
         7414.826    7.177566E-14
         7422.996    7.118352E-14
         7431.184    7.059654E-14
         7439.372    7.001643E-14
         7447.573    6.943921E-14
         7455.783    6.886744E-14
         7464.002    6.830045E-14
         7472.231    6.773779E-14
         7480.464    6.717994E-14
          7488.71    6.662616E-14
         7496.966    6.607827E-14
         7505.231    6.553501E-14
         7513.505    6.499584E-14
         7521.788    6.446059E-14
         7530.076    6.392947E-14
         7538.377    6.340248E-14
         7546.688    6.287929E-14
         7555.007    6.235990E-14
         7563.335    6.184427E-14
         7571.673    6.133240E-14
         7580.021    6.082432E-14
         7588.373    6.032072E-14
         7596.738    5.982036E-14
         7605.113    5.932366E-14
         7613.497    5.883066E-14
          7621.89    5.834132E-14
         7630.292    5.785551E-14
         7638.704    5.737368E-14
         7647.121    5.689548E-14
         7655.551    5.642057E-14
         7663.991    5.594920E-14
         7672.439    5.548130E-14
         7680.897    5.501689E-14
         7689.365    5.455609E-14
         7697.838    5.409906E-14
         7706.324    5.364514E-14
         7714.819    5.319463E-14
         7723.324    5.274748E-14
         7731.838    5.230350E-14
         7740.362    5.186280E-14
         7748.895    5.142580E-14
         7757.434    5.099218E-14
         7765.985    5.056163E-14
         7774.546    5.013424E-14
         7783.117    4.971004E-14
         7791.697    4.928904E-14
         7800.287    4.887108E-14
         7808.886    4.845658E-14
          7817.49    4.804540E-14
         7826.108    4.763711E-14
         7834.736    4.723184E-14
         7843.373    4.682965E-14
          7852.02    4.643052E-14
         7860.676    4.603429E-14
         7869.337    4.564139E-14
         7878.013    4.525147E-14
         7886.697    4.486458E-14
         7895.392    4.448049E-14
         7904.096    4.409932E-14
         7912.809    4.372113E-14
         7921.532    4.334581E-14
         7930.261    4.297344E-14
         7939.003    4.260398E-14
         7947.755    4.223728E-14
         7956.517    4.187360E-14
         7965.288    4.151259E-14
         7974.069    4.115432E-14
          7982.86    4.079887E-14
         7991.656    4.044639E-14
         8000.466    4.009243E-14
         8009.286    3.967028E-14
         8018.115    3.925153E-14
         8026.954    3.883613E-14
         8035.803    3.842401E-14
         8044.658    3.801536E-14
         8053.526    3.760981E-14
         8062.404    3.720749E-14
         8071.292    3.680825E-14
          8080.19    3.641223E-14
         8089.098    3.601967E-14
         8098.016    3.563020E-14
         8106.938    3.524413E-14
         8115.875    3.486096E-14
         8124.822    3.448081E-14
         8133.779    3.410376E-14
         8142.746    3.372979E-14
         8151.723    3.335872E-14
         8160.709    3.299078E-14
         8169.701    3.262585E-14
         8178.708    3.226394E-14
         8187.724    3.190494E-14
          8196.75    3.154883E-14
         8205.786    3.119565E-14
         8214.832    3.084527E-14
         8223.884    3.049785E-14
          8232.95    3.015314E-14
         8242.026    2.981132E-14
         8251.112    2.947229E-14
         8260.208    2.913597E-14
         8269.314    2.880253E-14
         8278.431    2.847174E-14
         8287.552    2.814391E-14
         8296.688    2.781855E-14
         8305.835    2.749589E-14
         8314.991    2.717589E-14
         8324.153    2.685865E-14
         8333.334    2.654377E-14
         8342.521    2.623164E-14
         8351.713    2.594486E-14
          8360.92    2.575816E-14
         8370.138    2.557165E-14
         8379.365    2.538572E-14
         8388.603    2.520021E-14
          8397.85    2.501502E-14
         8407.104    2.483031E-14
         8416.371    2.464589E-14
         8425.649    2.446185E-14
         8434.934    2.427827E-14
         8444.236    2.409489E-14
         8453.546    2.391190E-14
         8462.865    2.372925E-14
         8472.189    2.354714E-14
         8481.525    2.336534E-14
          8490.88    2.318385E-14
          8500.24    2.300258E-14
         8509.611    2.281802E-14
         8518.987    2.263388E-14
         8528.384    2.244995E-14
          8537.78    2.226654E-14
         8547.188    2.208347E-14
         8556.615    2.190054E-14
         8566.043    2.171819E-14
         8575.486    2.153609E-14
          8584.94    2.135427E-14
         8594.409    2.117275E-14
         8603.879    2.099180E-14
         8613.359    2.081114E-14
         8622.854    2.063071E-14
          8632.36    2.045060E-14
         8641.882    2.027073E-14
         8651.403    2.009087E-14
         8660.937    1.990832E-14
         8670.484    1.972619E-14
         8680.043    1.954432E-14
         8689.611    1.936294E-14
         8699.191    1.918188E-14
         8708.781    1.900121E-14
         8718.382    1.882097E-14
         8727.988    1.864116E-14
          8737.61    1.846167E-14
         8747.242    1.828258E-14
         8756.886    1.810374E-14
         8766.539    1.792540E-14
         8776.203    1.774743E-14
         8785.879    1.756978E-14
          8795.56    1.739253E-14
         8805.256    1.721563E-14
         8814.963    1.703916E-14
         8824.681    1.686295E-14
         8834.408    1.668710E-14
         8844.147    1.651161E-14
         8853.893    1.633657E-14
         8863.653    1.616180E-14
         8873.425    1.598732E-14
         8883.207    1.581321E-14
            8893.    1.563946E-14
         8902.804    1.546605E-14
         8912.618    1.529302E-14
         8922.438    1.512034E-14
         8932.274    1.494795E-14
         8942.122    1.477589E-14
         8951.979    1.460361E-14
         8961.849    1.442973E-14
         8971.728    1.425619E-14
         8981.618    1.408310E-14
         8991.515    1.391041E-14
         9001.427    1.373969E-14
         9011.351    1.357925E-14
         9021.284    1.341929E-14
         9031.229    1.325961E-14
         9041.186    1.310030E-14
         9051.147    1.294137E-14
         9061.126    1.278279E-14
         9071.115    1.262453E-14
         9081.115    1.246653E-14
         9091.126    1.230895E-14
         9101.148    1.215175E-14
         9111.182    1.199487E-14
         9121.221    1.183835E-14
         9131.276    1.168212E-14
         9141.343    1.152619E-14
          9151.42    1.137060E-14
         9161.509    1.121538E-14
         9171.608    1.106041E-14
         9181.719    1.090584E-14
         9191.836    1.075159E-14
          9201.97    1.059764E-14
         9212.113    1.044403E-14
          9222.27    1.029062E-14
         9232.436    1.013764E-14
         9242.613    9.984944E-15
         9252.798    9.832172E-15
         9262.998    9.678542E-15
          9273.21    9.525288E-15
         9283.433    9.372350E-15
         9293.667    9.219784E-15
         9303.912    9.067599E-15
         9314.169    8.915719E-15
         9324.432    8.764255E-15
         9334.711    8.613099E-15
         9345.002    8.462254E-15
         9355.304    8.311751E-15
         9365.617    8.161603E-15
         9375.941    8.011794E-15
         9386.278    7.862318E-15
          9396.62    7.713210E-15
         9406.979    7.564360E-15
          9417.35    7.415873E-15
         9427.731    7.267731E-15
         9438.124    7.119865E-15
         9448.529    6.972334E-15
          9458.94    6.825191E-15
         9469.368    6.678297E-15
         9479.807    6.531758E-15
         9490.258    6.385457E-15
          9500.72    6.241523E-15
         9511.193    6.124528E-15
         9521.679    6.008530E-15
          9532.17    5.893458E-15
         9542.679    5.779238E-15
         9553.198    5.665941E-15
         9563.729    5.553534E-15
         9574.272    5.442026E-15
         9584.828    5.331399E-15
         9595.395    5.221672E-15
         9605.967    5.112889E-15
         9616.557    5.004954E-15
         9627.158    4.897858E-15
         9637.771    4.791663E-15
         9648.396    4.686305E-15
         9659.032    4.581828E-15
         9669.681    4.478197E-15
         9680.335    4.375490E-15
         9691.007    4.273550E-15
          9701.69    4.172514E-15
         9712.386    4.072276E-15
         9723.093    3.972895E-15
         9733.812    3.874355E-15
         9744.536    3.776698E-15
         9755.279    3.678789E-15
         9766.033    3.580742E-15
           9776.8    3.483604E-15
         9787.577    3.387375E-15
         9798.367    3.292059E-15
         9809.169    3.197619E-15
         9819.978    3.104157E-15
         9830.803    3.011530E-15
         9841.641    2.919788E-15
          9852.49    2.828933E-15
         9863.352    2.738978E-15
         9874.225    2.649890E-15
          9885.11    2.561680E-15
         9896.003    2.474373E-15
         9906.912    2.387892E-15
         9917.828    2.302308E-15
         9928.767    2.217519E-15
         9939.713    2.133617E-15
          9950.67    2.050565E-15
         9961.634    1.968413E-15
          9972.61    1.887094E-15
          9983.61    1.806550E-15
         9994.616    1.729349E-15
         10005.63    1.672105E-15
         10016.66    1.630559E-15
         10027.71    1.589317E-15
         10038.76    1.548463E-15
         10049.82    1.507951E-15
          10060.9    1.467750E-15
         10071.99    1.427934E-15
          10083.1    1.388429E-15
         10094.21    1.349315E-15
         10105.34    1.310518E-15
         10116.47    1.272110E-15
         10127.62    1.234055E-15
         10138.79    1.196324E-15
         10149.96    1.158984E-15
         10161.16    1.121971E-15
         10172.35    1.085354E-15
         10183.56    1.049096E-15
         10194.79    1.013170E-15
         10206.03    9.776425E-16
         10217.29    9.424461E-16
         10228.54    9.076529E-16
         10239.83    8.731921E-16
         10251.11    8.391405E-16
          10262.4    8.054562E-16
         10273.72    7.721160E-16
         10285.04    7.391814E-16
         10296.39    7.065915E-16
         10307.73    6.744093E-16
          10319.1    6.425751E-16
         10330.47    6.111542E-16
         10341.85    5.801143E-16
         10353.26    5.494285E-16
         10364.67    5.191559E-16
          10376.1    4.892409E-16
         10387.53    4.597440E-16
         10398.99    4.306064E-16
         10410.45    4.018887E-16
         10421.92    3.735601E-16
         10433.41    3.456013E-16
         10444.91    3.180636E-16
         10456.43    2.908946E-16
         10467.95    2.641510E-16
          10479.5    2.377801E-16
         10491.04    2.118371E-16
          10502.6    1.908340E-16
         10514.19    1.856357E-16
         10525.77    1.805005E-16
         10537.38    1.754183E-16
         10548.99    1.703990E-16
         10560.63    1.654336E-16
         10572.26    1.605315E-16
         10583.91    1.556885E-16
         10595.59    1.508997E-16
         10607.26    1.461750E-16
         10618.96    1.415052E-16
         10630.66    1.368996E-16
         10642.38    1.323544E-16
         10654.11    1.278646E-16
         10665.85    1.234398E-16
         10677.62    1.190711E-16
         10689.38    1.147681E-16
         10701.17    1.105217E-16
         10712.96    1.063410E-16
         10724.77    1.022216E-16
          10736.6    9.816020E-17
         10748.43    9.416488E-17
         10760.27    9.023192E-17
         10772.14    8.635748E-17
         10784.01    8.254975E-17
          10795.9    7.880112E-17
         10807.81    7.511589E-17
         10819.72    7.149756E-17
         10831.65    6.793963E-17
         10843.57    6.445256E-17
         10855.53    6.102272E-17
         10867.51    5.765722E-17
         10879.48    5.435980E-17
         10891.48    5.112423E-17
         10903.48    4.795682E-17
          10915.5    4.485459E-17
         10927.52    4.181809E-17
         10939.58    3.884465E-17
         10951.64    3.593709E-17
         10963.71    3.309882E-17
         10975.79    3.032722E-17
         10987.88    2.762233E-17
           11000.    2.498248E-17
