#  Table pcf170wsys.tab  Mon 12:21:07 02-Jun-97

#      WAVELENGTH      THROUGHPUT
#       angstroms                

            1216.     3.060743E-5
          1217.34     3.153799E-5
         1218.682     3.248654E-5
         1220.026     3.345247E-5
         1221.371     3.433388E-5
         1222.717     3.522924E-5
         1224.065     3.613978E-5
         1225.414     3.706500E-5
         1226.765     3.800523E-5
         1228.117     3.896057E-5
         1229.471     3.993115E-5
         1230.826     4.113673E-5
         1232.183     4.250279E-5
         1233.542     4.388902E-5
         1234.901     4.529374E-5
         1236.262     4.671901E-5
         1237.625     4.816375E-5
         1238.989     4.962956E-5
         1240.355     5.109107E-5
         1241.722     5.249578E-5
         1243.091     5.391687E-5
         1244.461     5.535370E-5
         1245.833     5.680576E-5
         1247.207     5.827525E-5
         1248.582     5.976035E-5
         1249.957     6.126089E-5
         1251.335     6.269558E-5
         1252.715     6.414043E-5
         1254.095     6.559733E-5
         1255.478     6.706842E-5
         1256.862     6.855177E-5
         1258.247     7.004735E-5
         1259.634     7.155676E-5
         1261.023     7.303777E-5
         1262.413     7.451447E-5
         1263.805     7.600150E-5
         1265.198     7.749881E-5
         1266.592     7.900580E-5
         1267.989     8.052409E-5
         1269.387     8.205357E-5
         1270.786     8.354976E-5
         1272.187     8.502207E-5
         1273.588     8.650157E-5
         1274.992     8.798981E-5
         1276.399     8.948671E-5
         1277.805     9.099022E-5
         1279.214     9.250230E-5
         1280.624     9.399376E-5
         1282.035     9.545452E-5
         1283.449     9.692279E-5
         1284.864     9.839633E-5
          1286.28     9.987496E-5
         1287.698     1.013605E-4
         1289.117     1.028520E-4
         1290.538     1.044537E-4
         1291.961     1.062319E-4
         1293.385     1.080157E-4
         1294.811     1.098045E-4
         1296.238     1.115996E-4
         1297.668     1.134013E-4
         1299.098     1.152071E-4
          1300.53     1.170058E-4
         1301.963     1.187866E-4
         1303.398     1.205709E-4
         1304.835     1.223607E-4
         1306.274     1.241556E-4
         1307.713     1.259533E-4
         1309.155     1.277564E-4
         1310.597     1.295500E-4
         1312.042     1.313300E-4
         1313.489     1.331134E-4
         1314.937     1.349012E-4
         1316.386     1.366905E-4
         1317.837     1.384842E-4
          1319.29     1.402805E-4
         1320.744     1.425441E-4
           1322.2     1.452547E-4
         1323.657     1.479693E-4
         1325.117     1.506884E-4
         1326.578     1.534117E-4
         1328.039     1.561378E-4
         1329.503     1.588697E-4
         1330.969     1.615874E-4
         1332.436     1.642986E-4
         1333.905     1.670132E-4
         1335.376     1.697306E-4
         1336.847     1.724498E-4
         1338.321     1.751732E-4
         1339.796     1.778994E-4
         1341.273     1.806104E-4
         1342.752     1.833208E-4
         1344.232     1.860334E-4
         1345.713     1.887463E-4
         1347.197     1.914627E-4
         1348.682     1.941812E-4
         1350.169     1.971025E-4
         1351.657     2.015987E-4
         1353.146     2.060958E-4
         1354.638     2.105759E-4
         1356.131     2.150278E-4
         1357.627     2.194829E-4
         1359.123     2.239338E-4
         1360.621     2.283828E-4
         1362.121     2.328256E-4
         1363.622     2.372659E-4
         1365.126     2.417105E-4
          1366.63     2.461500E-4
         1368.137     2.505915E-4
         1369.645     2.550325E-4
         1371.155     2.594702E-4
         1372.667     2.639114E-4
          1374.18     2.683494E-4
         1375.694     2.727846E-4
         1377.211     2.772210E-4
         1378.729     2.816561E-4
         1380.249     2.868848E-4
         1381.771     2.961732E-4
         1383.294     3.054615E-4
         1384.818     3.147442E-4
         1386.345     3.240310E-4
         1387.874     3.333222E-4
         1389.403     3.426021E-4
         1390.935     3.519024E-4
         1392.468     3.612124E-4
         1394.002     3.705180E-4
          1395.54     3.798330E-4
         1397.078     3.891427E-4
         1398.618     3.984470E-4
          1400.16     4.077599E-4
         1401.703     4.171097E-4
         1403.248     4.264553E-4
         1404.795     4.358116E-4
         1406.343     4.451589E-4
         1407.894     4.545120E-4
         1409.446     4.638656E-4
         1410.999     4.771399E-4
         1412.555     4.926132E-4
         1414.112     5.080823E-4
          1415.67     5.235458E-4
         1417.231     5.390203E-4
         1418.793     5.544972E-4
         1420.357     5.699734E-4
         1421.923     5.854412E-4
         1423.491     6.009098E-4
         1425.059     6.163717E-4
          1426.63     6.318424E-4
         1428.203     6.473129E-4
         1429.777     6.627833E-4
         1431.354     6.782095E-4
         1432.932     6.936253E-4
          1434.51     7.090304E-4
         1436.092     7.244399E-4
         1437.676     7.398535E-4
          1439.26     7.552474E-4
         1440.847     7.729015E-4
         1442.435     7.925197E-4
         1444.024     8.121170E-4
         1445.617     8.317230E-4
          1447.21     8.512950E-4
         1448.805     8.708660E-4
         1450.402     8.903733E-4
         1452.001     9.097020E-4
         1453.602     9.290259E-4
         1455.205     9.483180E-4
         1456.808     9.675752E-4
         1458.414     9.868171E-4
         1460.022     0.001006031
         1461.631     0.001024938
         1463.243     0.001043807
         1464.856     0.001062637
          1466.47     0.001081419
         1468.086     0.001100172
         1469.706     0.001118894
         1471.325     0.001137221
         1472.947     0.001155428
         1474.571     0.001173578
         1476.196     0.001191663
         1477.824     0.001209708
         1479.453     0.001227685
         1481.083     0.001245244
         1482.716     0.001262563
          1484.35     0.001279802
         1485.987     0.001296963
         1487.625     0.001315045
         1489.264     0.001334701
         1490.906     0.001353979
         1492.549     0.001372922
         1494.195      0.00139182
         1495.842     0.001410672
         1497.491     0.001429477
         1499.142     0.001448233
         1500.794     0.001462786
         1502.449     0.001472786
         1504.105     0.001482685
         1505.763     0.001492494
         1507.423     0.001502209
         1509.084     0.001511823
         1510.748     0.001521081
         1512.414     0.001529897
          1514.08     0.001538596
         1515.749     0.001547186
         1517.419     0.001555657
         1519.093      0.00156402
         1520.768     0.001572089
         1522.444     0.001579828
         1524.122     0.001587437
         1525.802      0.00159492
         1527.484     0.001602273
         1529.168     0.001609495
         1530.854     0.001613807
          1532.54     0.001615301
          1534.23     0.001616691
         1535.921     0.001617977
         1537.615     0.001619157
          1539.31     0.001620231
         1541.006     0.001621244
         1542.705      0.00162218
         1544.405     0.001623009
         1546.109      0.00162111
         1547.812     0.001617715
         1549.518     0.001614228
         1551.227     0.001610867
         1552.936     0.001607505
         1554.648     0.001604053
         1556.363     0.001600513
         1558.078     0.001596888
         1559.795     0.001593175
         1561.515     0.001584274
         1563.235     0.001574676
         1564.958     0.001565065
         1566.685     0.001555441
         1568.411     0.001545818
          1570.14     0.001536242
         1571.871     0.001527325
         1573.603     0.001518404
         1575.338     0.001509471
         1577.075     0.001500525
         1578.813     0.001491579
         1580.553     0.001482923
         1582.295      0.00147491
         1584.039     0.001466883
         1585.785     0.001458848
         1587.534     0.001450805
         1589.284     0.001442752
         1591.036     0.001434962
          1592.79     0.001427357
         1594.545     0.001419752
         1596.303      0.00141214
         1598.062     0.001404525
         1599.824     0.001396907
         1601.588     0.001390419
         1603.353     0.001384056
          1605.12     0.001377685
          1606.89     0.001371309
         1608.661     0.001364929
         1610.434     0.001358868
          1612.21     0.001353797
         1613.986     0.001348723
         1615.765     0.001343642
         1617.548     0.001338552
          1619.33     0.001333463
         1621.115     0.001329586
         1622.902     0.001326435
          1624.69     0.001323276
         1626.482     0.001320107
         1628.275     0.001316931
         1630.069       0.0013138
         1631.867     0.001311985
         1633.665     0.001310164
         1635.466     0.001308334
         1637.269     0.001306499
         1639.074     0.001304657
          1640.88     0.001303506
         1642.689     0.001303084
           1644.5     0.001302658
         1646.313     0.001302229
         1648.128     0.001301873
         1649.944     0.001302536
         1651.763     0.001304041
         1653.585     0.001305572
         1655.407     0.001307101
         1657.232      0.00130863
         1659.058     0.001310158
         1660.888     0.001312348
         1662.719     0.001315242
         1664.552     0.001318141
         1666.386     0.001321045
         1668.223     0.001323956
         1670.062     0.001326914
         1671.903     0.001331056
         1673.746     0.001335211
          1675.59     0.001339376
         1677.437     0.001343556
         1679.287     0.001347748
         1681.139     0.001351639
         1682.991     0.001355334
         1684.847     0.001359036
         1686.704     0.001362743
         1688.563     0.001366453
         1690.425     0.001370384
         1692.287     0.001375036
         1694.153     0.001379699
         1696.021     0.001384371
          1697.89      0.00138905
         1699.762     0.001393742
         1701.636     0.001399141
         1703.512     0.001404656
         1705.389      0.00141018
         1707.269      0.00141572
         1709.151     0.001421273
         1711.035     0.001427413
         1712.922     0.001434043
         1714.809     0.001440692
         1716.699     0.001447365
         1718.592     0.001454059
         1720.485     0.001460913
         1722.383     0.001468211
         1724.281     0.001475525
         1726.182     0.001482868
         1728.086     0.001490239
          1729.99     0.001497629
         1731.897     0.001505508
         1733.806     0.001513417
         1735.718     0.001521355
          1737.63     0.001529316
         1739.546     0.001537308
         1741.463     0.001545302
         1743.383     0.001553312
         1745.305     0.001561347
         1747.228     0.001569402
         1749.154     0.001577487
         1751.084     0.001584213
         1753.013     0.001589858
         1754.946      0.00159551
          1756.88     0.001601165
         1758.817     0.001606823
         1760.756     0.001612565
         1762.697     0.001618438
         1764.639      0.00162431
         1766.585      0.00163019
         1768.532     0.001636072
         1770.482      0.00164158
         1772.434     0.001645924
         1774.387     0.001650252
         1776.343     0.001654562
         1778.301     0.001658858
         1780.262     0.001663166
         1782.224     0.001667616
         1784.189     0.001672051
         1786.156      0.00167647
         1788.124      0.00168087
         1790.096     0.001685266
         1792.068     0.001689833
         1794.044     0.001694385
         1796.022     0.001698919
         1798.001     0.001703433
         1799.984     0.001707933
         1801.968     0.001709779
         1803.954     0.001711551
         1805.942     0.001713271
         1807.933     0.001714939
         1809.926     0.001716555
         1811.922     0.001718298
         1813.919     0.001719993
         1815.918     0.001721634
          1817.92     0.001723219
         1819.925      0.00172475
          1821.93     0.001726391
         1823.938     0.001727983
         1825.948     0.001729516
         1827.962     0.001730993
         1829.976      0.00173241
         1831.995     0.001732894
         1834.013     0.001733295
         1836.035     0.001733622
         1838.059     0.001733876
         1840.084     0.001734062
         1842.113     0.001734329
         1844.144     0.001734518
         1846.177     0.001734631
         1848.212     0.001734666
         1850.248     0.001734642
         1852.288     0.001734683
          1854.33     0.001734644
         1856.375     0.001734523
         1858.421      0.00173432
         1860.469     0.001733545
          1862.52     0.001731024
         1864.573     0.001728388
         1866.628     0.001725637
         1868.686     0.001722772
         1870.746     0.001719847
         1872.808     0.001716901
         1874.872     0.001713837
         1876.939     0.001710653
         1879.008     0.001707341
         1881.079      0.00170254
         1883.153     0.001697692
         1885.229     0.001692723
         1887.307     0.001687636
         1889.387     0.001682423
         1891.471     0.001674535
         1893.555     0.001665434
         1895.643     0.001656162
         1897.732     0.001646724
         1899.823     0.001637123
         1901.919      0.00162748
         1904.014     0.001617689
         1906.113     0.001607719
         1908.215     0.001597577
         1910.317     0.001587284
         1912.424     0.001576916
         1914.532     0.001566379
         1916.643     0.001555652
         1918.755     0.001544756
          1920.87     0.001534547
         1922.988      0.00152542
         1925.107     0.001516133
          1927.23     0.001506674
         1929.354      0.00149706
         1931.481     0.001487352
          1933.61     0.001477511
          1935.74     0.001467506
         1937.875      0.00145732
         1940.011     0.001446975
         1942.149     0.001436531
          1944.29     0.001425914
         1946.434     0.001415121
          1948.58     0.001404154
         1950.728     0.001392019
         1952.878     0.001377752
          1955.03     0.001363279
         1957.185     0.001348585
         1959.343     0.001333677
         1961.503     0.001318589
         1963.665       0.0013033
         1965.829     0.001287799
         1967.996     0.001272071
         1970.167     0.001256119
         1972.339     0.001240015
         1974.512     0.001223695
         1976.689     0.001207139
         1978.868     0.001190358
         1981.049     0.001176128
         1983.233     0.001164716
         1985.418      0.00115314
         1987.607     0.001141386
         1989.798     0.001129461
         1991.992     0.001117395
         1994.188     0.001105158
         1996.386     0.001092746
         1998.586     0.001080165
         2000.789     0.001067746
         2002.996      0.00105575
         2005.203     0.001043567
         2007.414     0.001031177
         2009.627     0.001018585
         2011.841      0.00100509
          2014.06     9.912235E-4
         2016.279     9.771539E-4
         2018.502     9.628587E-4
         2020.727     9.483392E-4
         2022.955     9.335906E-4
         2025.185     9.186197E-4
         2027.417     9.034240E-4
         2029.652     8.880041E-4
         2031.889     8.723563E-4
         2034.129     8.564722E-4
         2036.371     8.403576E-4
         2038.616     8.240130E-4
         2040.864     8.078497E-4
         2043.112     7.921315E-4
         2045.365     7.761850E-4
         2047.621     7.600069E-4
         2049.877     7.436222E-4
         2052.137     7.269720E-4
         2054.399     7.100970E-4
         2056.664     6.929957E-4
         2058.931     6.756648E-4
         2061.201     6.580814E-4
         2063.472     6.402562E-4
         2065.747     6.221942E-4
         2068.024     6.038997E-4
         2070.304     5.853679E-4
         2072.586     5.665679E-4
         2074.871     5.475380E-4
         2077.157     5.282806E-4
         2079.447     5.087805E-4
          2081.74     4.889995E-4
         2084.034     4.689906E-4
         2086.332     4.487381E-4
         2088.632     4.282470E-4
         2090.933     4.137271E-4
          2093.24     4.081711E-4
         2095.546     4.025480E-4
         2097.856     3.968480E-4
         2100.169     3.910367E-4
         2102.483     3.846859E-4
         2104.802     3.782496E-4
         2107.121     3.717416E-4
         2109.444     3.651504E-4
         2111.769     3.599697E-4
         2114.097     3.551963E-4
         2116.428     3.503645E-4
          2118.76     3.454764E-4
         2121.097     3.402977E-4
         2123.434     3.348076E-4
         2125.775     3.292527E-4
         2128.118     3.236353E-4
         2130.463     3.182399E-4
         2132.813     3.139307E-4
         2135.163     3.095782E-4
         2137.518     3.051735E-4
         2139.875     3.008108E-4
         2142.231     2.961923E-4
         2144.594     2.915026E-4
         2146.958     2.867633E-4
         2149.325     2.819723E-4
         2151.693     2.779681E-4
         2154.065     2.742551E-4
          2156.44     2.705029E-4
         2158.817     2.667109E-4
         2161.197     2.627729E-4
         2163.578     2.586936E-4
         2165.964     2.545722E-4
         2168.353     2.504092E-4
         2170.743     2.465244E-4
         2173.135     2.433101E-4
         2175.529     2.400662E-4
         2177.929     2.367896E-4
         2180.329     2.334305E-4
         2182.733     2.296827E-4
         2185.138     2.259082E-4
         2187.547     2.221009E-4
         2189.959     2.182629E-4
         2192.372     2.153746E-4
         2194.789     2.124805E-4
         2197.208     2.095645E-4
         2199.632     2.066255E-4
         2202.056     2.047200E-4
         2204.482     2.029384E-4
         2206.912     2.010871E-4
         2209.345     1.991662E-4
         2211.782     1.976730E-4
         2214.219     1.963073E-4
          2216.66     1.948852E-4
         2219.104     1.934068E-4
         2221.549     1.917710E-4
         2223.998     1.900173E-4
         2226.449     1.882048E-4
         2228.904     1.863329E-4
         2231.361     1.847233E-4
          2233.82     1.833230E-4
         2236.284     1.818729E-4
         2238.748     1.803758E-4
         2241.217     1.788057E-4
         2243.687     1.771655E-4
         2246.159     1.754763E-4
         2248.636     1.737362E-4
         2251.114     1.721807E-4
         2253.597     1.708666E-4
          2256.08     1.695136E-4
         2258.567     1.681198E-4
         2261.057     1.666182E-4
         2263.548     1.649847E-4
         2266.045     1.633069E-4
         2268.542     1.615881E-4
         2271.042     1.600602E-4
         2273.546     1.588249E-4
         2276.051     1.575567E-4
         2278.562     1.562533E-4
         2281.072     1.548833E-4
         2283.588     1.534320E-4
         2286.104     1.519471E-4
         2288.623     1.504271E-4
         2291.147     1.490533E-4
         2293.672     1.478696E-4
         2296.202     1.466605E-4
         2298.732     1.454793E-4
         2301.266     1.441747E-4
         2303.803     1.427452E-4
         2306.342     1.412831E-4
         2308.885     1.397861E-4
         2311.431     1.385763E-4
         2313.979     1.375893E-4
          2316.53     1.365770E-4
         2319.082     1.355398E-4
         2321.639     1.343831E-4
         2324.198     1.331471E-4
          2326.76     1.318835E-4
         2329.325     1.305923E-4
         2331.892     1.295662E-4
         2334.463     1.286211E-4
         2337.038     1.276533E-4
         2339.613     1.266643E-4
         2342.193     1.255098E-4
         2344.774     1.243071E-4
         2347.357     1.230800E-4
         2349.947     1.218267E-4
         2352.536     1.209143E-4
         2355.131     1.199891E-4
         2357.726     1.190449E-4
         2360.326     1.180677E-4
         2362.927     1.169856E-4
         2365.531     1.158825E-4
          2368.14     1.147572E-4
         2370.749     1.137117E-4
         2373.364     1.128947E-4
         2375.979     1.120621E-4
         2378.598     1.112124E-4
          2381.22     1.102915E-4
         2383.844     1.092911E-4
         2386.473     1.082717E-4
         2389.103     1.072354E-4
         2391.737     1.063558E-4
         2394.373     1.055518E-4
         2397.012     1.047335E-4
         2399.656     1.038996E-4
           2402.3     1.029790E-4
         2404.949     1.020312E-4
           2407.6     1.010684E-4
         2410.252     1.001167E-4
          2412.91     9.939705E-5
          2415.57     9.866540E-5
         2418.233     9.792131E-5
         2420.898     9.712840E-5
         2423.567     9.624970E-5
         2426.238     9.535761E-5
         2428.913     9.445188E-5
         2431.591     9.367386E-5
         2434.271     9.298097E-5
         2436.954     9.227757E-5
         2439.641     9.156248E-5
         2442.331     9.081646E-5
         2445.022     9.005659E-5
         2447.718     8.928512E-5
         2450.416     8.852338E-5
         2453.117     8.786614E-5
         2455.822     8.719910E-5
         2458.528     8.652253E-5
         2461.239     8.581291E-5
         2463.951     8.506701E-5
         2466.669     8.431006E-5
         2469.387     8.354342E-5
         2472.108     8.292130E-5
         2474.834     8.233511E-5
         2477.561     8.174101E-5
         2480.294     8.113155E-5
         2483.027     8.046212E-5
         2485.764     7.978322E-5
         2488.504     7.909517E-5
         2491.246     7.848545E-5
         2493.994     7.797192E-5
         2496.742     7.745158E-5
         2499.494     7.692346E-5
          2502.25     7.631585E-5
         2505.007     7.568414E-5
          2507.77     7.504340E-5
         2510.533     7.442587E-5
         2513.302     7.393003E-5
         2516.072     7.342765E-5
         2518.844     7.291824E-5
         2521.622     7.236606E-5
         2524.401     7.178180E-5
         2527.185     7.118923E-5
         2529.969     7.058942E-5
         2532.759     7.015846E-5
         2535.551     6.972322E-5
         2538.344     6.920664E-5
         2541.144     6.857842E-5
         2543.946     6.790960E-5
          2546.75     6.723623E-5
         2549.558     6.655828E-5
         2552.367     6.598584E-5
          2555.18     6.542959E-5
         2557.997     6.486936E-5
         2560.817     6.429343E-5
         2563.639     6.368495E-5
         2566.465     6.307193E-5
         2569.294     6.245472E-5
         2572.128     6.190085E-5
         2574.962     6.136610E-5
           2577.8     6.082758E-5
         2580.643     6.028058E-5
         2583.486     5.971617E-5
         2586.336     5.914720E-5
         2589.186     5.857490E-5
         2592.039     5.809617E-5
         2594.897     5.765259E-5
         2597.757     5.720611E-5
         2600.622     5.674694E-5
         2603.487     5.625260E-5
         2606.357     5.575438E-5
         2609.231     5.525256E-5
         2612.106     5.481673E-5
         2614.985     5.440276E-5
          2617.87     5.398537E-5
         2620.754     5.355712E-5
         2623.643     5.310242E-5
         2626.536     5.264429E-5
         2629.431     5.218277E-5
         2632.328     5.176741E-5
         2635.232     5.136048E-5
         2638.135     5.095081E-5
         2641.045     5.052999E-5
         2643.955     5.009289E-5
          2646.87     4.965223E-5
         2649.788     4.920829E-5
         2652.708     4.886278E-5
         2655.633     4.852206E-5
          2658.56     4.817889E-5
          2661.49     4.782186E-5
         2664.424     4.745129E-5
          2667.36     4.707800E-5
         2670.302     4.670776E-5
         2673.244     4.639077E-5
         2676.193     4.607081E-5
         2679.142     4.574854E-5
         2682.094     4.542529E-5
         2685.052     4.509974E-5
         2688.012     4.477173E-5
         2690.975     4.444960E-5
          2693.94     4.414246E-5
          2696.91     4.383268E-5
         2699.883     4.352038E-5
         2702.858     4.326224E-5
         2705.839     4.300262E-5
         2708.822     4.273958E-5
         2711.807     4.252735E-5
         2714.796     4.234745E-5
         2717.789     4.216472E-5
         2720.785     4.195921E-5
         2723.785     4.169419E-5
         2726.788     4.142564E-5
         2729.792     4.115368E-5
         2732.802     4.096397E-5
         2735.814     4.077785E-5
          2738.83     4.058894E-5
         2741.849     4.037316E-5
         2744.872     4.013903E-5
         2747.898     3.990173E-5
         2750.926     3.965138E-5
         2753.958     3.937655E-5
         2756.994     3.910088E-5
         2760.034     3.882402E-5
         2763.076     3.851877E-5
         2766.121     3.821273E-5
         2769.172     3.790541E-5
         2772.223     3.762718E-5
         2775.281     3.735892E-5
         2778.339     3.709009E-5
           2781.4     3.680111E-5
         2784.468     3.648800E-5
         2787.536     3.617426E-5
          2790.61     3.587283E-5
         2793.685     3.562567E-5
         2796.765     3.537766E-5
         2799.848     3.512892E-5
         2802.933     3.482567E-5
         2806.025     3.451846E-5
         2809.117     3.421067E-5
         2812.213     3.394131E-5
         2815.314     3.368695E-5
         2818.417     3.343187E-5
         2821.524     3.318251E-5
         2824.633     3.293932E-5
         2827.749     3.269519E-5
         2830.865     3.244654E-5
         2833.985     3.218636E-5
         2837.109     3.192549E-5
         2840.236     3.166607E-5
         2843.368     3.143119E-5
         2846.501     3.119590E-5
         2849.641     3.095973E-5
         2852.781     3.071005E-5
         2855.924     3.045801E-5
         2859.074     3.020505E-5
         2862.226     2.997155E-5
         2865.381     2.974576E-5
          2868.54     2.951939E-5
         2871.701     2.930773E-5
         2874.866     2.910849E-5
         2878.036     2.890874E-5
         2881.208     2.868609E-5
         2884.385     2.842638E-5
         2887.563     2.816617E-5
         2890.748     2.792906E-5
         2893.935     2.776987E-5
         2897.123     2.761036E-5
         2900.317     2.743695E-5
         2903.515     2.714173E-5
         2906.715     2.684694E-5
          2909.92     2.655256E-5
         2913.126     2.630126E-5
         2916.338     2.605126E-5
         2919.552     2.580164E-5
         2922.773     2.555194E-5
         2925.993     2.530279E-5
         2929.217     2.505399E-5
         2932.448     2.480491E-5
         2935.679     2.455632E-5
         2938.916     2.430798E-5
         2942.155     2.407959E-5
         2945.399     2.386137E-5
         2948.646     2.364345E-5
         2951.895     2.342557E-5
         2955.151     2.320752E-5
         2958.407     2.299003E-5
         2961.668     2.275785E-5
         2964.933     2.251183E-5
           2968.2     2.226633E-5
         2971.474     2.203403E-5
         2974.748     2.181819E-5
         2978.027     2.160262E-5
          2981.31     2.138148E-5
         2984.595     2.115191E-5
         2987.887     2.092255E-5
         2991.179     2.070422E-5
         2994.477     2.050476E-5
         2997.778     2.030566E-5
         3001.083     2.010208E-5
         3004.391     1.988900E-5
         3007.702     1.967643E-5
         3011.019     1.948624E-5
         3014.337     1.934655E-5
         3017.658     1.920707E-5
         3020.987     1.904623E-5
         3024.317     1.883497E-5
         3027.651     1.862414E-5
         3030.987     1.841376E-5
         3034.328     1.820359E-5
         3037.673     1.799385E-5
         3041.022     1.780203E-5
         3044.375     1.765037E-5
         3047.731     1.749898E-5
         3051.089     1.733862E-5
         3054.454     1.715901E-5
          3057.82     1.697993E-5
         3061.191     1.681121E-5
         3064.565     1.666120E-5
         3067.944     1.651149E-5
         3071.326     1.636207E-5
          3074.71     1.621302E-5
           3078.1     1.606420E-5
         3081.495     1.589682E-5
          3084.89     1.570615E-5
         3088.292     1.551575E-5
         3091.696     1.534703E-5
         3095.102     1.519989E-5
         3098.516     1.505290E-5
          3101.93     1.493321E-5
         3105.351     1.483368E-5
         3108.773     1.473371E-5
           3112.2     1.466048E-5
         3115.631     1.460213E-5
         3119.064     1.454345E-5
         3122.504     1.445305E-5
         3125.945     1.435050E-5
         3129.391     1.424732E-5
         3132.841     1.415538E-5
         3136.294     1.406545E-5
         3139.752     1.397501E-5
         3143.211     1.389780E-5
         3146.678     1.382113E-5
         3150.145     1.374409E-5
         3153.618     1.366642E-5
         3157.095     1.358832E-5
         3160.573     1.350738E-5
         3164.059     1.341350E-5
         3167.546     1.331919E-5
         3171.039     1.323312E-5
         3174.533     1.316759E-5
         3178.031     1.310168E-5
         3181.536     1.302878E-5
         3185.044     1.294710E-5
         3188.555     1.286496E-5
         3192.068     1.280023E-5
         3195.587     1.274757E-5
          3199.11     1.269460E-5
         3202.637     1.261837E-5
         3206.167     1.253396E-5
           3209.7     1.244911E-5
         3213.239     1.240639E-5
         3216.781     1.236735E-5
         3220.327     1.232231E-5
         3223.877     1.222019E-5
         3227.431     1.211751E-5
         3230.989     1.203175E-5
         3234.549     1.199103E-5
         3238.115     1.195003E-5
         3241.685     1.189389E-5
         3245.259     1.182072E-5
         3248.836     1.174713E-5
         3252.418     1.167305E-5
         3256.003     1.159851E-5
         3259.591     1.152359E-5
         3263.186     1.147678E-5
         3266.781     1.143343E-5
         3270.383     1.138807E-5
         3273.988     1.132803E-5
         3277.596     1.126767E-5
         3281.209     1.120689E-5
         3284.826     1.114569E-5
         3288.449     1.108411E-5
         3292.073     1.102231E-5
           3295.7     1.096022E-5
         3299.335     1.089770E-5
          3302.97     1.083490E-5
         3306.614     1.077168E-5
         3310.257     1.071053E-5
         3313.906     1.068027E-5
         3317.559     1.064980E-5
         3321.215     1.060230E-5
         3324.878     1.052048E-5
         3328.542     1.043830E-5
         3332.211     1.039683E-5
         3335.885     1.038237E-5
          3339.56     1.036780E-5
         3343.244     1.030759E-5
         3346.927     1.024092E-5
         3350.619     1.017960E-5
         3354.311     1.014693E-5
         3358.007     1.011404E-5
          3361.71     1.006476E-5
         3365.415     9.996387E-6
         3369.126     9.927551E-6
         3372.839     9.858501E-6
         3376.557     9.789052E-6
         3380.279     9.720540E-6
         3384.004     9.668163E-6
         3387.736     9.615416E-6
         3391.469     9.590644E-6
         3395.208     9.609340E-6
         3398.953     9.628084E-6
         3402.698     9.581809E-6
         3406.449     9.509892E-6
         3410.204     9.439535E-6
         3413.964     9.403305E-6
         3417.727     9.366842E-6
         3421.493     9.322944E-6
         3425.265     9.267731E-6
         3429.043     9.212161E-6
         3432.821     9.170240E-6
         3436.606     9.132773E-6
         3440.394     9.095065E-6
         3444.185     9.057176E-6
         3447.984     9.019000E-6
         3451.783     8.971856E-6
         3455.588     8.914461E-6
         3459.398     8.856715E-6
         3463.211     8.814645E-6
         3467.029     8.775316E-6
          3470.85     8.735784E-6
         3474.678     8.696080E-6
         3478.506     8.656156E-6
         3482.339     8.616063E-6
          3486.18     8.575722E-6
         3490.023     8.535260E-6
         3493.871     8.513933E-6
          3497.72     8.492454E-6
         3501.576     8.454836E-6
         3505.437     8.393818E-6
         3509.301     8.332418E-6
          3513.17     8.286976E-6
         3517.041     8.244873E-6
         3520.918     8.207194E-6
         3524.799     8.184541E-6
         3528.685     8.161713E-6
         3532.575     8.125564E-6
         3536.468     8.082455E-6
         3540.368     8.040917E-6
         3544.269     8.017470E-6
         3548.176     7.993831E-6
         3552.088     7.959177E-6
         3556.004     7.914793E-6
         3559.924     7.870114E-6
         3563.846     7.825293E-6
         3567.777     7.780135E-6
         3571.708     7.734731E-6
         3575.644     7.689046E-6
         3579.588     7.643017E-6
         3583.534     7.615603E-6
         3587.484     7.590202E-6
         3591.439     7.564615E-6
         3595.396     7.538868E-6
          3599.36     7.512914E-6
         3603.328     7.486863E-6
         3607.301     7.460634E-6
         3611.277     7.434188E-6
         3615.256     7.407516E-6
         3619.242     7.380632E-6
         3623.234     7.353702E-6
         3627.226     7.326636E-6
         3631.223     7.292671E-6
         3635.228     7.243184E-6
         3639.237     7.193372E-6
         3643.247     7.161133E-6
         3647.261     7.132869E-6
         3651.284     7.104406E-6
         3655.307     7.075839E-6
         3659.335     7.047061E-6
         3663.371     7.018053E-6
         3667.408     6.988862E-6
         3671.453     6.959438E-6
         3675.498     6.929840E-6
         3679.552     6.899998E-6
         3683.606     6.869975E-6
         3687.665     6.839736E-6
         3691.732     6.809255E-6
           3695.8     6.778593E-6
         3699.876     6.747678E-6
         3703.953     6.739046E-6
         3708.039     6.731009E-6
         3712.124     6.710769E-6
         3716.215     6.679138E-6
         3720.313     6.647250E-6
         3724.413     6.615174E-6
         3728.521     6.582838E-6
         3732.629     6.550305E-6
         3736.746     6.517511E-6
         3740.863     6.489524E-6
         3744.985     6.480272E-6
         3749.116     6.470910E-6
         3753.247     6.442507E-6
         3757.386     6.408683E-6
         3761.526     6.383579E-6
         3765.675     6.373607E-6
         3769.824     6.363543E-6
         3773.978     6.329966E-6
         3778.141     6.295078E-6
         3782.304     6.259941E-6
         3786.473     6.224505E-6
         3790.648     6.192669E-6
         3794.824     6.181634E-6
          3799.01     6.170480E-6
         3803.196     6.140122E-6
         3807.389     6.103584E-6
         3811.586     6.076325E-6
          3815.79     6.064600E-6
         3819.994     6.052775E-6
         3824.203     6.040757E-6
         3828.419     6.028622E-6
          3832.64     6.000291E-6
         3836.865     5.962092E-6
         3841.095     5.930337E-6
         3845.331     5.917600E-6
         3849.568     5.904760E-6
          3853.81     5.891734E-6
         3858.058     5.878579E-6
         3862.312     5.850956E-6
         3866.572     5.811022E-6
         3870.832     5.776037E-6
         3875.099     5.762187E-6
         3879.369     5.748226E-6
         3883.646     5.734070E-6
         3887.927     5.719784E-6
         3892.213     5.705371E-6
         3896.504     5.690829E-6
           3900.8     5.671105E-6
           3905.1     5.629026E-6
         3909.403     5.586695E-6
         3913.712     5.567586E-6
         3918.027     5.552130E-6
         3922.346     5.536504E-6
          3926.67     5.520713E-6
         3930.999     5.504796E-6
         3935.333     5.488742E-6
         3939.669     5.472574E-6
         3944.012     5.456122E-6
          3948.36     5.439534E-6
         3952.712     5.405240E-6
          3957.07     5.360064E-6
         3961.432     5.333185E-6
         3965.799     5.344255E-6
         3970.169     5.353136E-6
         3974.546     5.306943E-6
         3978.927     5.260471E-6
         3983.314     5.257202E-6
         3987.705     5.268000E-6
         3992.101     5.251014E-6
           3996.5     5.203467E-6
         4000.906     5.165286E-6
         4005.316     5.164378E-6
         4009.732     5.163465E-6
         4014.152     5.134975E-6
         4018.577     5.104677E-6
         4023.008     5.074286E-6
          4027.44     5.043853E-6
          4031.88     5.013342E-6
         4036.325     4.982753E-6
         4040.775     4.952123E-6
         4045.229     4.921395E-6
         4049.689     4.890644E-6
         4054.153     4.859784E-6
          4058.62     4.828914E-6
         4063.094     4.797946E-6
         4067.574     4.766932E-6
         4072.058     4.735856E-6
         4076.547     4.704714E-6
         4081.041     4.673533E-6
         4085.538     4.642286E-6
         4090.042     4.611004E-6
         4094.548     4.579706E-6
         4099.064     4.548357E-6
         4103.583     4.540470E-6
         4108.107     4.538708E-6
         4112.636     4.519600E-6
         4117.165     4.488049E-6
         4121.706     4.456384E-6
          4126.25     4.424634E-6
         4130.799     4.392868E-6
         4135.353     4.361075E-6
         4139.911     4.329272E-6
         4144.473     4.326778E-6
          4149.04     4.324863E-6
         4153.616     4.299148E-6
         4158.195     4.267116E-6
         4162.779     4.235068E-6
         4167.366     4.203023E-6
         4171.962     4.183731E-6
         4176.559     4.181621E-6
         4181.163     4.171906E-6
         4185.772     4.139692E-6
         4190.385     4.107480E-6
         4195.006     4.075169E-6
         4199.629     4.042879E-6
         4204.261     4.016715E-6
         4208.894     3.991018E-6
         4213.531     3.988306E-6
         4218.178     3.992832E-6
         4222.826     3.978797E-6
         4227.484     3.952689E-6
         4232.142     3.926512E-6
          4236.81     3.900205E-6
         4241.478     3.883539E-6
         4246.151     3.887811E-6
         4250.835     3.886583E-6
         4255.519     3.859924E-6
         4260.212     3.833136E-6
         4264.907     3.806215E-6
         4269.606     3.779201E-6
         4274.315     3.780680E-6
         4279.025     3.784772E-6
         4283.744     3.763934E-6
         4288.464     3.736538E-6
         4293.194     3.730290E-6
         4297.925     3.734260E-6
         4302.661     3.720442E-6
         4307.406     3.692638E-6
         4312.152     3.664762E-6
         4316.909     3.636757E-6
         4321.665     3.619846E-6
         4326.432     3.623639E-6
         4331.199     3.619381E-6
         4335.971     3.591073E-6
         4340.753     3.567703E-6
         4345.537     3.571379E-6
          4350.33     3.572836E-6
         4355.123     3.544096E-6
         4359.926     3.515233E-6
          4364.73     3.518348E-6
          4369.54     3.521966E-6
         4374.359     3.495988E-6
         4379.179     3.466821E-6
         4384.009     3.464759E-6
          4388.84     3.468269E-6
          4393.68     3.446690E-6
         4398.521     3.417137E-6
         4403.368     3.410493E-6
         4408.225     3.413945E-6
         4413.082     3.396298E-6
          4417.95     3.366380E-6
         4422.817     3.355691E-6
         4427.696     3.359037E-6
         4432.574     3.344689E-6
         4437.458     3.314417E-6
         4442.353     3.300217E-6
         4447.248     3.303497E-6
         4452.153     3.291929E-6
         4457.059     3.261322E-6
          4461.97     3.244209E-6
         4466.891     3.247387E-6
         4471.813     3.238028E-6
         4476.745     3.207050E-6
         4481.678     3.187632E-6
         4486.618     3.190750E-6
         4491.564     3.183009E-6
         4496.514     3.151721E-6
         4501.473     3.134262E-6
         4506.433     3.149814E-6
         4511.401     3.165385E-6
         4516.375     3.180943E-6
         4521.355     3.186913E-6
         4526.337     3.166940E-6
         4531.325     3.156093E-6
          4536.32     3.171386E-6
         4541.321     3.177130E-6
         4546.328     3.155982E-6
         4551.339     3.144272E-6
         4556.357     3.159342E-6
          4561.38     3.174420E-6
         4566.406     3.189475E-6
          4571.44     3.193828E-6
         4576.479     3.171144E-6
         4581.527     3.159562E-6
         4586.575     3.174344E-6
         4591.632     3.176764E-6
         4596.691     3.152934E-6
         4601.758     3.142187E-6
         4606.832     3.156701E-6
          4611.91     3.171235E-6
         4616.994     3.185788E-6
         4622.084     3.184074E-6
          4627.18     3.158586E-6
         4632.278     3.150691E-6
         4637.385     3.164965E-6
         4642.497     3.179257E-6
         4647.615     3.193568E-6
         4652.738     3.185936E-6
         4657.868     3.158864E-6
         4663.002     3.155666E-6
         4668.141     3.169637E-6
         4673.287     3.183664E-6
         4678.438     3.197727E-6
         4683.596     3.182193E-6
         4688.759     3.153456E-6
         4693.928     3.156912E-6
           4699.1     3.170631E-6
         4704.281     3.184415E-6
         4709.467     3.198225E-6
         4714.658     3.172635E-6
         4719.856     3.142142E-6
         4725.059     3.154417E-6
         4730.268     3.167932E-6
          4735.48     3.181412E-6
         4740.701     3.188875E-6
         4745.927     3.157102E-6
         4751.159     3.134992E-6
         4756.396     3.148181E-6
          4761.64     3.161402E-6
         4766.889     3.174676E-6
         4772.142     3.168997E-6
         4777.402     3.135448E-6
         4782.669     3.125281E-6
         4787.941     3.138205E-6
          4793.22     3.151177E-6
         4798.504     3.164186E-6
         4803.791     3.177203E-6
         4809.087     3.190245E-6
         4814.389     3.163098E-6
         4819.696     3.127190E-6
         4825.009     3.137113E-6
         4830.328     3.149848E-6
         4835.653     3.162601E-6
         4840.981     3.175364E-6
         4846.318     3.188153E-6
         4851.661     3.185306E-6
         4857.009     3.147455E-6
         4862.364     3.131617E-6
         4867.724     3.144096E-6
          4873.09     3.156588E-6
         4878.457     3.169083E-6
         4883.838     3.181615E-6
         4889.222     3.194157E-6
         4894.612     3.161901E-6
         4900.008     3.121736E-6
         4905.409     3.133995E-6
         4910.814     3.146258E-6
         4916.228     3.158500E-6
         4921.648     3.170759E-6
         4927.074     3.183033E-6
         4932.505     3.170305E-6
          4937.94     3.128031E-6
         4943.386     3.119357E-6
         4948.833     3.131358E-6
         4954.289     3.143378E-6
          4959.75     3.155414E-6
         4965.216     3.167411E-6
         4970.692     3.172342E-6
         4976.169     3.128007E-6
         4981.658     3.100283E-6
         4987.146     3.112003E-6
         4992.642     3.123738E-6
         4998.148     3.135500E-6
         5003.656     3.148873E-6
         5009.174     3.163093E-6
         5014.694     3.177319E-6
         5020.219     3.191567E-6
         5025.756     3.205898E-6
         5031.294     3.206334E-6
         5036.843     3.160760E-6
         5042.394     3.140594E-6
         5047.955     3.154525E-6
         5053.517     3.168426E-6
         5059.085     3.182328E-6
         5064.665     3.196306E-6
         5070.246     3.207582E-6
         5075.838     3.159420E-6
         5081.431     3.126677E-6
         5087.036     3.140204E-6
         5092.641     3.153760E-6
         5098.252     3.167364E-6
         5103.875     3.181000E-6
         5109.499     3.194641E-6
         5115.134     3.208315E-6
         5120.771     3.213129E-6
         5126.418     3.161533E-6
         5132.067     3.133351E-6
         5137.722     3.146544E-6
         5143.389     3.159799E-6
         5149.056     3.173080E-6
         5154.735     3.186395E-6
         5160.415     3.199713E-6
         5166.107     3.213062E-6
         5171.799     3.226416E-6
         5177.498     3.239791E-6
         5183.208     3.214512E-6
         5188.919     3.158610E-6
         5194.643     3.158469E-6
         5200.366     3.171412E-6
         5206.102     3.184339E-6
         5211.838     3.197286E-6
         5217.581     3.210286E-6
         5223.336     3.223288E-6
         5229.091     3.236272E-6
         5234.859     3.249285E-6
         5240.627     3.254435E-6
         5246.407     3.194632E-6
         5252.188     3.161943E-6
         5257.975     3.174566E-6
         5263.774     3.187144E-6
         5269.574     3.199688E-6
         5275.383     3.212306E-6
         5281.199     3.224948E-6
         5287.018     3.237600E-6
          5292.85     3.250253E-6
         5298.682     3.262880E-6
         5304.523     3.216271E-6
         5310.371     3.156675E-6
         5316.228     3.168914E-6
         5322.085     3.181117E-6
          5327.95     3.193262E-6
         5333.826     3.205472E-6
         5339.703     3.217704E-6
          5345.59     3.229960E-6
         5351.483     3.242218E-6
         5357.385     3.254452E-6
         5363.289     3.266691E-6
         5369.198     3.278946E-6
         5375.117     3.220999E-6
         5381.042     3.165773E-6
         5386.978     3.177573E-6
         5392.914     3.189347E-6
         5398.858     3.201111E-6
         5404.807     3.212884E-6
         5410.766     3.224680E-6
          5416.73     3.236489E-6
         5422.702     3.248286E-6
          5428.68     3.260065E-6
         5434.665     3.271858E-6
         5440.656     3.283665E-6
         5446.651     3.295480E-6
         5452.655     3.307286E-6
         5458.666     3.319071E-6
         5464.684     3.263046E-6
         5470.708     3.197349E-6
         5476.739     3.208602E-6
         5482.777     3.219868E-6
         5488.818     3.231142E-6
         5494.869     3.242434E-6
         5500.926     3.253617E-6
         5506.991     3.264123E-6
         5513.062     3.274636E-6
         5519.139     3.285153E-6
         5525.221     3.295673E-6
         5531.312     3.306191E-6
          5537.41     3.316666E-6
         5543.514     3.273966E-6
         5549.625     3.191519E-6
         5555.743     3.195840E-6
         5561.868     3.205841E-6
         5567.996     3.215799E-6
         5574.134     3.225768E-6
         5580.279     3.235740E-6
         5586.431     3.245657E-6
          5592.59     3.255580E-6
         5598.755     3.265507E-6
         5604.927     3.272072E-6
         5611.103     3.277788E-6
         5617.289     3.283508E-6
         5623.481     3.289197E-6
         5629.681     3.294862E-6
         5635.887     3.208002E-6
           5642.1     3.148748E-6
         5648.316     3.154141E-6
         5654.543     3.159538E-6
         5660.777     3.164934E-6
         5667.018     3.170332E-6
         5673.265     3.175698E-6
         5679.519     3.181036E-6
          5685.78     3.186377E-6
         5692.045     3.191714E-6
          5698.32     3.197052E-6
         5704.602     3.202392E-6
         5710.891     3.207734E-6
         5717.187     3.213075E-6
         5723.489     3.218415E-6
         5729.799     3.223754E-6
         5736.112     3.229091E-6
         5742.436     3.195020E-6
         5748.766     3.097691E-6
         5755.104     3.082762E-6
         5761.448     3.087834E-6
           5767.8     3.092907E-6
         5774.155     3.097937E-6
         5780.521     3.102953E-6
         5786.893     3.108021E-6
         5793.272     3.113060E-6
         5799.659     3.118068E-6
         5806.053     3.123134E-6
         5812.453     3.128177E-6
         5818.858     3.133179E-6
         5825.272     3.138233E-6
         5831.694     3.143280E-6
         5838.123     3.148282E-6
         5844.559     3.153327E-6
         5851.002     3.158380E-6
         5857.453     3.163374E-6
         5863.907     3.168403E-6
         5870.368     3.167316E-6
         5876.843     3.064039E-6
         5883.321     3.016006E-6
         5889.807     3.020789E-6
           5896.3     3.025572E-6
           5902.8     3.030353E-6
         5909.304     3.035129E-6
         5915.819     3.039958E-6
          5922.34     3.044769E-6
         5928.869     3.049540E-6
         5935.405     3.054357E-6
         5941.945     3.059180E-6
         5948.492     3.064001E-6
         5955.053     3.068822E-6
         5961.618     3.073656E-6
          5968.19     3.078532E-6
         5974.767     3.083358E-6
         5981.356     3.088183E-6
         5987.947     3.093048E-6
         5994.548     3.097912E-6
         6001.157     3.102041E-6
         6007.769     3.102721E-6
         6014.396     3.103437E-6
         6021.022     3.104169E-6
         6027.663     3.104899E-6
         6034.308     3.105622E-6
         6040.954     3.089883E-6
         6047.617     2.975579E-6
          6054.28     2.935147E-6
         6060.958     2.935865E-6
         6067.636     2.936525E-6
         6074.329     2.937223E-6
         6081.021     2.937937E-6
         6087.722     2.938646E-6
         6094.437     2.939352E-6
         6101.152     2.940055E-6
         6107.878     2.940753E-6
         6114.611     2.941446E-6
         6121.355     2.942138E-6
           6128.1     2.942826E-6
         6134.853     2.943509E-6
         6141.616     2.944205E-6
         6148.386     2.944945E-6
         6155.167     2.945633E-6
          6161.95     2.946304E-6
         6168.746     2.946973E-6
          6175.54     2.947638E-6
         6182.348     2.948301E-6
         6189.163     2.948959E-6
         6195.986     2.949615E-6
          6202.82     2.950268E-6
         6209.655     2.950920E-6
         6216.497     2.951509E-6
          6223.35     2.952124E-6
         6230.211     2.952766E-6
         6237.083     2.953342E-6
         6243.955     2.953953E-6
         6250.838     2.954582E-6
         6257.729     2.955154E-6
         6264.624     2.955680E-6
          6271.53     2.956197E-6
         6278.444     2.956758E-6
         6285.366     2.863932E-6
         6292.294     2.783784E-6
         6299.231     2.784248E-6
         6306.176     2.784709E-6
         6313.124     2.785143E-6
         6320.084     2.785543E-6
         6327.051     2.785940E-6
         6334.026     2.786335E-6
         6341.009     2.786718E-6
         6347.999     2.787047E-6
         6354.994     2.787376E-6
            6362.     2.787686E-6
         6369.013     2.787950E-6
         6376.034     2.788214E-6
         6383.063     2.788475E-6
           6390.1     2.788733E-6
         6397.145     2.788928E-6
         6404.193     2.789086E-6
         6411.253     2.789217E-6
         6418.321     2.789349E-6
         6425.397     2.789431E-6
          6432.48     2.789496E-6
         6439.571     2.789557E-6
          6446.67     2.789561E-6
         6453.774     2.789559E-6
         6460.889     2.789542E-6
         6468.011     2.789415E-6
         6475.142     2.789287E-6
          6482.28     2.789154E-6
         6489.426     2.789017E-6
         6496.576     2.788771E-6
         6503.738     2.785912E-6
         6510.908     2.780658E-6
         6518.085     2.775351E-6
         6525.271     2.769995E-6
         6532.465     2.764600E-6
         6539.666     2.759164E-6
         6546.872     2.753731E-6
         6554.089     2.748259E-6
         6561.314     2.742760E-6
         6568.548     2.737261E-6
         6575.789     2.731664E-6
         6583.038     2.726067E-6
         6590.295     2.720499E-6
         6597.557     2.714880E-6
          6604.83     2.709217E-6
         6612.111     2.703513E-6
           6619.4     2.697766E-6
         6626.698     2.692076E-6
         6634.003     2.686325E-6
         6641.316     2.680528E-6
         6648.634     2.674785E-6
         6655.964     2.668942E-6
         6663.301     2.663104E-6
         6670.647     2.657293E-6
         6678.001     2.651429E-6
         6685.363     2.645566E-6
         6692.729     2.639683E-6
         6700.107     2.633759E-6
         6707.494     2.627839E-6
         6714.888     2.621918E-6
         6722.291     2.615998E-6
         6729.701     2.610081E-6
          6737.12     2.604107E-6
         6744.543     2.598135E-6
         6751.979     2.592161E-6
         6759.422     2.586190E-6
         6766.874     2.580164E-6
         6774.333     2.574170E-6
         6781.802     2.568187E-6
         6789.278     2.562160E-6
         6796.759     2.556140E-6
         6804.251     2.550120E-6
         6811.752     2.544100E-6
         6819.262     2.538081E-6
          6826.78     2.532067E-6
         6834.306     2.526055E-6
         6841.836     2.520046E-6
         6849.378     2.514035E-6
         6856.929     2.508028E-6
         6864.488     2.501988E-6
         6872.056     2.495943E-6
         6879.632     2.489944E-6
         6887.216     2.483949E-6
         6894.805     2.477956E-6
         6902.405     2.471944E-6
         6910.015     2.465896E-6
         6917.632     2.459909E-6
         6925.258     2.453925E-6
         6932.893     2.447964E-6
         6940.536     2.442038E-6
         6948.183     2.436066E-6
         6955.839     2.430095E-6
         6963.511     2.424146E-6
         6971.188     2.436190E-6
         6978.873     2.546109E-6
         6986.566     2.556830E-6
         6994.261     2.550567E-6
         7001.975     2.543487E-6
         7009.694     2.534073E-6
         7017.422     2.524620E-6
         7025.158     2.515218E-6
         7032.902     2.505873E-6
         7040.652     2.496581E-6
          7048.41     2.487253E-6
         7056.184     2.477979E-6
         7063.962     2.468737E-6
          7071.75     2.459508E-6
         7079.542     2.450299E-6
          7087.35     2.441100E-6
          7095.16     2.431962E-6
         7102.981     2.422855E-6
         7110.812     2.413762E-6
         7118.647     2.404688E-6
         7126.499     2.395623E-6
         7134.351     2.386614E-6
          7142.22     2.408663E-6
         7150.089     2.506691E-6
         7157.968     2.387875E-6
         7165.863     2.350734E-6
         7173.758     2.393626E-6
         7181.671     2.470228E-6
         7189.584     2.460826E-6
         7197.514     2.451489E-6
         7205.444     2.442177E-6
         7213.384     2.432881E-6
          7221.34     2.423603E-6
         7229.297     2.414400E-6
         7237.271     2.405147E-6
         7245.245     2.395954E-6
         7253.236     2.386785E-6
         7261.228     2.377639E-6
         7269.229     2.368509E-6
         7277.243     2.454385E-6
         7285.265     2.480943E-6
           7293.3     2.471372E-6
         7301.336     2.461863E-6
         7309.381     2.452369E-6
         7317.439     2.442946E-6
         7325.506     2.433500E-6
         7333.586     2.424072E-6
         7341.667     2.414703E-6
         7349.764     2.405341E-6
         7357.863     2.396004E-6
          7365.97     2.461717E-6
          7374.09     2.502575E-6
         7382.219     2.492809E-6
         7390.362     2.483100E-6
         7398.505     2.473420E-6
         7406.661     2.463801E-6
         7414.826     2.454174E-6
         7422.996     2.444565E-6
         7431.184     2.435010E-6
         7439.372     2.425535E-6
         7447.573     2.507494E-6
         7455.783     2.526878E-6
         7464.002     2.516975E-6
         7472.231     2.507087E-6
         7480.464     2.497223E-6
          7488.71     2.487373E-6
         7496.966     2.477594E-6
         7505.231     2.529319E-6
         7513.505     2.575170E-6
         7521.788     2.564990E-6
         7530.076     2.554825E-6
         7538.377     2.544670E-6
         7546.688     2.534522E-6
         7555.007     2.581838E-6
         7563.335     2.628548E-6
         7571.673     2.617973E-6
         7580.021     2.607411E-6
         7588.373     2.596871E-6
         7596.738     2.586337E-6
         7605.113     2.633073E-6
         7613.497     2.676837E-6
          7621.89     2.665881E-6
         7630.292     2.654939E-6
         7638.704     2.644014E-6
         7647.121     2.633106E-6
         7655.551     2.682859E-6
         7663.991     2.720127E-6
         7672.439     2.708804E-6
         7680.897     2.697492E-6
         7689.365     2.686196E-6
         7697.838     2.758786E-6
         7706.324     2.770206E-6
         7714.819     2.758508E-6
         7723.324     2.746826E-6
         7731.838     2.754499E-6
         7740.362     2.828256E-6
         7748.895     2.816180E-6
         7757.434     2.804122E-6
         7765.985     2.853974E-6
         7774.546     2.883017E-6
         7783.117     2.870564E-6
         7791.697     2.875456E-6
         7800.287     2.947347E-6
         7808.886     2.934510E-6
          7817.49     2.921698E-6
         7826.108     2.970173E-6
         7834.736     2.995993E-6
         7843.373     2.982799E-6
          7852.02     2.989620E-6
         7860.676     3.055026E-6
         7869.337     3.041470E-6
         7878.013     3.106194E-6
         7886.697     3.111656E-6
         7895.392     3.097730E-6
         7904.096     3.083829E-6
         7912.809     3.096904E-6
         7921.532     3.151610E-6
         7930.261     3.139839E-6
         7939.003     3.208340E-6
         7947.755     3.203151E-6
         7956.517     3.188556E-6
         7965.288     3.223355E-6
         7974.069     3.252376E-6
          7982.86     3.237441E-6
         7991.656     3.070098E-6
         8000.466     2.359270E-6
         8009.286     3.628683E-6
         8018.115     3.194536E-6
         8026.954     2.867552E-6
         8035.803     3.336857E-6
         8044.658     3.558873E-6
         8053.526     3.595382E-6
         8062.404     4.108566E-6
         8071.292     4.277550E-6
          8080.19     3.789469E-6
         8089.098     3.381912E-6
         8098.016     3.729889E-6
         8106.938     3.863644E-6
         8115.875     3.764027E-6
         8124.822     3.468082E-6
         8133.779     3.260832E-6
         8142.746     3.243987E-6
         8151.723     3.102697E-6
         8160.709     3.178526E-6
         8169.701     4.386387E-6
         8178.708     3.838908E-6
         8187.724     3.974419E-6
          8196.75     3.645235E-6
         8205.786     3.712350E-6
         8214.832     3.994063E-6
         8223.884     4.144102E-6
          8232.95     4.116832E-6
         8242.026     3.779884E-6
         8251.112     3.399548E-6
         8260.208     3.456094E-6
         8269.314     4.106017E-6
         8278.431     3.504331E-6
         8287.552     3.970203E-6
         8296.688     4.038105E-6
         8305.835     3.917303E-6
         8314.991     3.892851E-6
         8324.153     3.750846E-6
         8333.334     3.515875E-6
         8342.521     3.681659E-6
         8351.713     4.130603E-6
          8360.92     3.652859E-6
         8370.138     3.581931E-6
         8379.365     3.822901E-6
         8388.603     3.650757E-6
          8397.85     3.930271E-6
         8407.104     4.486089E-6
         8416.371     4.450563E-6
         8425.649     3.855475E-6
         8434.934     3.822133E-6
         8444.236     4.175202E-6
         8453.546     3.985333E-6
         8462.865     3.641703E-6
         8472.189     3.827201E-6
         8481.525     3.967903E-6
          8490.88     3.737785E-6
          8500.24     4.375356E-6
         8509.611     4.235026E-6
         8518.987     3.804337E-6
         8528.384     3.904499E-6
          8537.78     4.468428E-6
         8547.188     4.283101E-6
         8556.615     4.180719E-6
         8566.043     3.800242E-6
         8575.486     3.394709E-6
          8584.94     3.761978E-6
         8594.409     4.140036E-6
         8603.879     3.788184E-6
         8613.359     3.487572E-6
         8622.854     3.634538E-6
          8632.36     3.923163E-6
         8641.882     3.788711E-6
         8651.403     3.370440E-6
         8660.937     3.917631E-6
         8670.484     3.853746E-6
         8680.043     4.062545E-6
         8689.611     4.608231E-6
         8699.191     4.388317E-6
         8708.781     3.725817E-6
         8718.382     3.472283E-6
         8727.988     3.887516E-6
          8737.61     3.409915E-6
         8747.242     3.958991E-6
         8756.886     3.943272E-6
         8766.539     3.499271E-6
         8776.203     3.531221E-6
         8785.879     3.472020E-6
          8795.56     3.644418E-6
         8805.256     3.837107E-6
         8814.963     3.758737E-6
         8824.681     3.578792E-6
         8834.408     3.553936E-6
         8844.147     3.665516E-6
         8853.893     3.577700E-6
         8863.653     3.649497E-6
         8873.425     3.736553E-6
         8883.207     3.472436E-6
            8893.     3.289629E-6
         8902.804     3.524796E-6
         8912.618     3.290915E-6
         8922.438     3.027457E-6
         8932.274     3.399815E-6
         8942.122     3.274787E-6
         8951.979     3.131326E-6
         8961.849     2.929699E-6
         8971.728     2.901496E-6
         8981.618     3.267765E-6
         8991.515     3.327636E-6
         9001.427     2.909621E-6
         9011.351     2.916127E-6
         9021.284     2.581153E-6
         9031.229     2.714628E-6
         9041.186     3.237426E-6
         9051.147     3.302555E-6
         9061.126     2.784911E-6
         9071.115     3.028783E-6
         9081.115     3.223496E-6
         9091.126     3.027734E-6
         9101.148     2.598454E-6
         9111.182     2.480086E-6
         9121.221     2.638750E-6
         9131.276     2.814816E-6
         9141.343     2.641093E-6
          9151.42     2.603153E-6
         9161.509     2.531245E-6
         9171.608     2.636953E-6
         9181.719     2.555021E-6
         9191.836     2.480283E-6
          9201.97     2.624448E-6
         9212.113     2.434398E-6
          9222.27     2.453916E-6
         9232.436     1.968708E-6
         9242.613     2.170838E-6
         9252.798     1.918770E-6
         9262.998     2.003681E-6
          9273.21     2.106200E-6
         9283.433     2.067552E-6
         9293.667     2.056921E-6
         9303.912     2.055624E-6
         9314.169     1.994241E-6
         9324.432     2.037233E-6
         9334.711     1.999231E-6
         9345.002     1.968418E-6
         9355.304     2.058425E-6
         9365.617     2.016642E-6
         9375.941     1.837160E-6
         9386.278     1.843934E-6
          9396.62     1.811592E-6
         9406.979     1.710173E-6
          9417.35     1.642781E-6
         9427.731     1.540141E-6
         9438.124     1.681433E-6
         9448.529     1.622569E-6
          9458.94     1.556924E-6
         9469.368     1.372783E-6
         9479.807     1.415972E-6
         9490.258     1.670543E-6
          9500.72     1.316391E-6
         9511.193     1.340322E-6
         9521.679     1.322743E-6
          9532.17     1.387329E-6
         9542.679     1.252190E-6
         9553.198     1.261395E-6
         9563.729     1.219176E-6
         9574.272     1.212701E-6
         9584.828     1.229812E-6
         9595.395     1.277225E-6
         9605.967     1.140699E-6
         9616.557     1.262326E-6
         9627.158     1.077003E-6
         9637.771     9.997593E-7
         9648.396     1.097056E-6
         9659.032     1.095534E-6
         9669.681     1.206898E-6
         9680.335     1.125027E-6
         9691.007     9.593921E-7
          9701.69     9.471925E-7
         9712.386     9.214431E-7
         9723.093     9.847762E-7
         9733.812     8.605126E-7
         9744.536     8.333761E-7
         9755.279     8.590758E-7
         9766.033     8.348583E-7
           9776.8     8.132500E-7
         9787.577     7.402764E-7
         9798.367     7.038027E-7
         9809.169     7.930499E-7
         9819.978     8.529182E-7
         9830.803     5.802327E-7
         9841.641     5.808411E-7
          9852.49     6.646095E-7
         9863.352     5.598861E-7
         9874.225     5.600515E-7
          9885.11     5.222701E-7
         9896.003     5.363952E-7
         9906.912     5.681239E-7
         9917.828     4.828548E-7
         9928.767     4.876392E-7
         9939.713     4.573445E-7
          9950.67     4.320159E-7
         9961.634     4.383470E-7
          9972.61     4.278719E-7
          9983.61     3.659424E-7
         9994.616     3.355703E-7
         10005.63     3.343753E-7
         10016.66     3.467101E-7
         10027.71     3.793763E-7
         10038.76     3.095625E-7
         10049.82     3.344156E-7
          10060.9     2.746483E-7
         10071.99     3.133126E-7
          10083.1     2.905934E-7
         10094.21     2.814219E-7
         10105.34     2.964288E-7
         10116.47     3.095446E-7
         10127.62     2.618180E-7
         10138.79     2.834782E-7
         10149.96     2.577206E-7
         10161.16     1.852056E-7
         10172.35     2.230667E-7
         10183.56     2.241222E-7
         10194.79     2.448103E-7
         10206.03     1.963525E-7
         10217.29     1.705953E-7
         10228.54     2.004036E-7
         10239.83     1.858905E-7
         10251.11     1.626569E-7
          10262.4     1.605245E-7
         10273.72     1.539371E-7
         10285.04     1.482888E-7
         10296.39     1.381078E-7
         10307.73     1.321454E-7
          10319.1     1.244906E-7
         10330.47     1.127868E-7
         10341.85     1.172247E-7
         10353.26     1.166506E-7
         10364.67     1.102180E-7
          10376.1     1.018998E-7
         10387.53     1.010749E-7
         10398.99     8.054767E-8
         10410.45     7.238079E-8
         10421.92     7.693300E-8
         10433.41     6.676562E-8
         10444.91     5.086262E-8
         10456.43     5.111166E-8
         10467.95     4.929259E-8
          10479.5     4.257401E-8
         10491.04     3.825996E-8
          10502.6     2.855053E-8
         10514.19     3.188055E-8
         10525.77     3.559319E-8
         10537.38     3.199140E-8
         10548.99     3.351327E-8
         10560.63     2.613519E-8
         10572.26     3.353414E-8
         10583.91     3.045477E-8
         10595.59     2.226379E-8
         10607.26     2.368949E-8
         10618.96     2.829463E-8
         10630.66     2.862749E-8
         10642.38     2.277813E-8
         10654.11     2.337571E-8
         10665.85     1.729938E-8
         10677.62     2.194681E-8
         10689.38     2.065821E-8
         10701.17     2.277864E-8
         10712.96     2.009918E-8
         10724.77     1.874874E-8
          10736.6     1.662270E-8
         10748.43     1.655076E-8
         10760.27     1.667572E-8
         10772.14     1.845465E-8
         10784.01     1.356351E-8
          10795.9     1.384650E-8
         10807.81     1.379408E-8
         10819.72     1.077926E-8
         10831.65     1.121718E-8
         10843.57     1.056750E-8
         10855.53     1.041588E-8
         10867.51     1.079720E-8
         10879.48     9.497882E-9
         10891.48     8.043208E-9
         10903.48     7.517571E-9
          10915.5     6.947811E-9
         10927.52     6.874953E-9
         10939.58     6.757888E-9
         10951.64     4.836692E-9
         10963.71     4.053019E-9
         10975.79     4.543303E-9
         10987.88     4.979988E-9
           11000.     4.225527E-9
