#  Table pcf255wsys.tab  Mon 12:21:08 02-Jun-97

#      WAVELENGTH      THROUGHPUT
#       angstroms                

            1216.    2.257457E-22
          1217.34    2.289046E-22
         1218.682    2.320899E-22
         1220.026    2.352918E-22
         1221.371    2.378084E-22
         1222.717    2.403426E-22
         1224.065    2.428975E-22
         1225.414    2.454714E-22
         1226.765    2.480649E-22
         1228.117    2.506779E-22
         1229.471    2.533103E-22
         1230.826    2.555665E-22
         1232.183    2.575851E-22
         1233.542    2.596169E-22
         1234.901    2.616594E-22
         1236.262    2.637153E-22
         1237.625    2.657829E-22
         1238.989    2.678642E-22
         1240.355    2.698242E-22
         1241.722    2.714074E-22
         1243.091    2.729993E-22
         1244.461    2.745989E-22
         1245.833    2.762057E-22
         1247.207    2.778219E-22
         1248.582    2.794454E-22
         1249.957    2.810759E-22
         1251.335    2.823414E-22
         1252.715    2.835999E-22
         1254.095    2.848627E-22
         1255.478    2.861316E-22
         1256.862    2.874048E-22
         1258.247    2.886823E-22
         1259.634    2.899654E-22
         1261.023    2.910188E-22
         1262.413    2.919913E-22
         1263.805    2.929665E-22
         1265.198    2.939446E-22
         1266.592    2.949249E-22
         1267.989    2.959087E-22
         1269.387    2.968956E-22
         1270.786    2.977336E-22
         1272.187    2.984558E-22
         1273.588    2.991789E-22
         1274.992    2.999036E-22
         1276.399    3.006299E-22
         1277.805    3.013569E-22
         1279.214    3.020853E-22
         1280.624    3.027222E-22
         1282.035    3.032420E-22
         1283.449    3.037627E-22
         1284.864    3.042834E-22
          1286.28    3.048038E-22
         1287.698    3.053249E-22
         1289.117    3.058461E-22
         1290.538    3.063102E-22
         1291.961    3.066798E-22
         1293.385    3.070490E-22
         1294.811    3.074176E-22
         1296.238    3.077859E-22
         1297.668    3.081540E-22
         1299.098    3.085212E-22
          1300.53    3.088528E-22
         1301.963    3.091235E-22
         1303.398    3.093932E-22
         1304.835    3.096622E-22
         1306.274    3.099305E-22
         1307.713    3.101976E-22
         1309.155    3.104640E-22
         1310.597    3.106985E-22
         1312.042    3.108882E-22
         1313.489    3.110766E-22
         1314.937    3.112641E-22
         1316.386    3.114501E-22
         1317.837    3.116351E-22
          1319.29    3.118189E-22
         1320.744    3.119710E-22
           1322.2    3.120927E-22
         1323.657    3.122129E-22
         1325.117    3.123318E-22
         1326.578    3.124492E-22
         1328.039    3.125651E-22
         1329.503    3.126796E-22
         1330.969    3.127572E-22
         1332.436    3.128149E-22
         1333.905    3.128709E-22
         1335.376    3.129253E-22
         1336.847    3.129780E-22
         1338.321    3.130290E-22
         1339.796    3.130783E-22
         1341.273    3.130947E-22
         1342.752    3.131042E-22
         1344.232    3.131119E-22
         1345.713    3.131179E-22
         1347.197    3.131219E-22
         1348.682    3.131241E-22
         1350.169    3.131214E-22
         1351.657    3.130933E-22
         1353.146    3.130632E-22
         1354.638    3.129987E-22
         1356.131    3.128889E-22
         1357.627    3.127773E-22
         1359.123    3.126641E-22
         1360.621    3.125428E-22
         1362.121    3.124110E-22
         1363.622    3.122774E-22
         1365.126    3.121420E-22
          1366.63    3.120048E-22
         1368.137    3.118658E-22
         1369.645    3.117249E-22
         1371.155    3.115818E-22
         1372.667    3.114366E-22
          1374.18    3.112896E-22
         1375.694    3.111408E-22
         1377.211    3.109901E-22
         1378.729    3.108376E-22
         1380.249    3.106847E-22
         1381.771    3.105377E-22
         1383.294    3.103888E-22
         1384.818    3.102382E-22
         1386.345    3.100857E-22
         1387.874    3.099313E-22
         1389.403    3.097753E-22
         1390.935    3.096316E-22
         1392.468    3.094952E-22
         1394.002    3.093572E-22
          1395.54    3.092172E-22
         1397.078    3.090756E-22
         1398.618    3.089324E-22
          1400.16    3.087905E-22
         1401.703    3.086745E-22
         1403.248    3.085569E-22
         1404.795    3.084376E-22
         1406.343    3.083167E-22
         1407.894    3.081941E-22
         1409.446    3.080698E-22
         1410.999    3.079540E-22
         1412.555    3.078421E-22
         1414.112    3.077285E-22
          1415.67    3.076134E-22
         1417.231    3.074967E-22
         1418.793    3.073783E-22
         1420.357    3.072568E-22
         1421.923    3.071284E-22
         1423.491    3.069983E-22
         1425.059    3.068667E-22
          1426.63    3.067335E-22
         1428.203    3.065985E-22
         1429.777    3.064620E-22
         1431.354    3.063041E-22
         1432.932    3.061413E-22
          1434.51    3.059769E-22
         1436.092    3.058107E-22
         1437.676    3.056428E-22
          1439.26    3.054733E-22
         1440.847    3.052778E-22
         1442.435    3.050594E-22
         1444.024    3.048394E-22
         1445.617    3.046174E-22
          1447.21    3.043937E-22
         1448.805    3.041681E-22
         1450.402    3.039236E-22
         1452.001    3.036264E-22
         1453.602    3.033268E-22
         1455.205    3.030254E-22
         1456.808    3.027223E-22
         1458.414    3.024170E-22
         1460.022    3.021086E-22
         1461.631    3.017154E-22
         1463.243    3.013202E-22
         1464.856    3.009227E-22
          1466.47    3.005234E-22
         1468.086    3.001218E-22
         1469.706    2.997177E-22
         1471.325    2.992236E-22
         1472.947    2.987073E-22
         1474.571    2.981886E-22
         1476.196    2.976678E-22
         1477.824    2.971442E-22
         1479.453    2.966187E-22
         1481.083    2.960079E-22
         1482.716    2.953524E-22
          1484.35    2.946944E-22
         1485.987    2.940339E-22
         1487.625    2.935940E-22
         1489.264    2.935108E-22
         1490.906    2.933416E-22
         1492.549    2.931008E-22
         1494.195    2.928529E-22
         1495.842    2.925979E-22
         1497.491    2.923359E-22
         1499.142    2.920667E-22
         1500.794    2.916065E-22
         1502.449    2.909381E-22
         1504.105    2.902614E-22
         1505.763    2.895755E-22
         1507.423    2.888805E-22
         1509.084    2.881771E-22
         1510.748    2.874132E-22
         1512.414    2.865786E-22
          1514.08    2.857349E-22
         1515.749    2.848817E-22
         1517.419    2.840196E-22
         1519.093    2.831473E-22
         1520.768    2.822354E-22
         1522.444    2.812776E-22
         1524.122    2.803108E-22
         1525.802    2.793343E-22
         1527.484    2.783484E-22
         1529.168    2.773532E-22
         1530.854    2.763334E-22
          1532.54    3.285937E-12
          1534.23    6.863482E-12
         1535.921    1.041717E-11
         1537.615    1.394797E-11
          1539.31    1.745085E-11
         1541.006    2.093052E-11
         1542.705    2.438545E-11
         1544.405    2.781293E-11
         1546.109    3.116725E-11
         1547.812    3.445152E-11
         1549.518    3.769446E-11
         1551.227    4.090015E-11
         1552.936    4.406438E-11
         1554.648    4.718837E-11
         1556.363    5.027222E-11
         1558.078    5.331123E-11
         1559.795    5.630946E-11
         1561.515    5.928403E-11
         1563.235    6.221953E-11
         1564.958    6.511653E-11
         1566.685    6.797511E-11
         1568.411    7.079096E-11
          1570.14    7.357087E-11
         1571.871    7.634435E-11
         1573.603    7.907923E-11
         1575.338    8.177831E-11
         1577.075    8.444145E-11
         1578.813    8.706475E-11
         1580.553    8.967001E-11
         1582.295    9.227818E-11
         1584.039    9.485425E-11
         1585.785    9.739656E-11
         1587.534    9.990516E-11
         1589.284    1.023800E-10
         1591.036    1.048689E-10
          1592.79    1.073607E-10
         1594.545    1.098218E-10
         1596.303    1.122547E-10
         1598.062    1.146581E-10
         1599.824    1.170319E-10
         1601.588    1.194735E-10
         1603.353    1.218999E-10
          1605.12    1.243029E-10
          1606.89    1.266816E-10
         1608.661    1.290355E-10
         1610.434    1.313959E-10
          1612.21    1.338313E-10
         1613.986    1.362464E-10
         1615.765    1.386431E-10
         1617.548    1.410219E-10
          1619.33    1.433787E-10
         1621.115    1.458097E-10
         1622.902    1.482815E-10
          1624.69    1.507381E-10
         1626.482    1.531832E-10
         1628.275    1.556122E-10
         1630.069    1.580345E-10
         1631.867    1.606056E-10
         1633.665    1.631670E-10
         1635.466    1.657231E-10
         1637.269    1.682698E-10
         1639.074    1.708082E-10
          1640.88    1.734300E-10
         1642.689    1.761473E-10
           1644.5    1.788628E-10
         1646.313    1.815764E-10
         1648.128    1.842991E-10
         1649.944    1.871659E-10
         1651.763    1.902448E-10
         1653.585    1.933417E-10
         1655.407    1.964450E-10
         1657.232    1.995599E-10
         1659.058    2.026831E-10
         1660.888    2.059230E-10
         1662.719    2.092863E-10
         1664.552    2.126665E-10
         1666.386    2.160621E-10
         1668.223    2.194764E-10
         1670.062    2.229145E-10
         1671.903    2.265711E-10
         1673.746    2.302511E-10
          1675.59    2.339534E-10
         1677.437    2.376817E-10
         1679.287    2.414341E-10
         1681.139    2.453332E-10
         1682.991    2.493331E-10
         1684.847    2.533657E-10
         1686.704    2.574292E-10
         1688.563    2.615217E-10
         1690.425    2.656908E-10
         1692.287    2.700293E-10
         1694.153    2.744072E-10
         1696.021    2.788227E-10
          1697.89    2.832734E-10
         1699.762    2.877665E-10
         1701.636    2.924417E-10
         1703.512    2.971818E-10
         1705.389    3.019626E-10
         1707.269    3.067901E-10
         1709.151    3.116618E-10
         1711.035    3.166629E-10
         1712.922    3.217820E-10
         1714.809    3.269486E-10
         1716.699    3.321675E-10
         1718.592    3.374370E-10
         1720.485    3.427882E-10
         1722.383    3.482956E-10
         1724.281    3.538521E-10
         1726.182    3.594677E-10
         1728.086    3.651423E-10
          1729.99    3.708681E-10
         1731.897    3.767691E-10
         1733.806    3.827316E-10
         1735.718    3.887553E-10
          1737.63    3.948375E-10
         1739.546    4.009847E-10
         1741.463    4.072663E-10
         1743.383    4.136352E-10
         1745.305    4.200703E-10
         1747.228    4.265688E-10
         1749.154    4.331379E-10
         1751.084    4.393935E-10
         1753.013    4.453955E-10
         1754.946    4.514492E-10
          1756.88    4.575522E-10
         1758.817    4.637044E-10
         1760.756    4.699302E-10
         1762.697    4.762435E-10
         1764.639    4.826052E-10
         1766.585    4.890218E-10
         1768.532    4.954907E-10
         1770.482    5.020279E-10
         1772.434    5.086654E-10
         1774.387    5.153572E-10
         1776.343    5.221009E-10
         1778.301    5.289026E-10
         1780.262    5.357714E-10
         1782.224    5.427421E-10
         1784.189    5.497735E-10
         1786.156    5.568626E-10
         1788.124    5.640062E-10
         1790.096    5.712180E-10
         1792.068    5.785474E-10
         1794.044    5.859407E-10
         1796.022    5.933946E-10
         1798.001    6.009060E-10
         1799.984    6.084860E-10
         1801.968    6.161838E-10
         1803.954    6.239453E-10
         1805.942    6.317671E-10
         1807.933    6.396560E-10
         1809.926    6.476093E-10
         1811.922    6.556967E-10
         1813.919    6.638524E-10
         1815.918    6.720709E-10
          1817.92    6.803610E-10
         1819.925    6.887220E-10
          1821.93    6.972112E-10
         1823.938    7.057761E-10
         1825.948    7.144074E-10
         1827.962    7.231175E-10
         1829.976    7.318897E-10
         1831.995    7.408164E-10
         1834.013    7.498077E-10
         1836.035    7.588771E-10
         1838.059    7.680204E-10
         1840.084    7.772362E-10
         1842.113    7.866027E-10
         1844.144    7.960453E-10
         1846.177    8.055647E-10
         1848.212    8.151619E-10
         1850.248    8.248416E-10
         1852.288    8.346736E-10
          1854.33    8.445859E-10
         1856.375    8.545841E-10
         1858.421    8.646526E-10
         1860.469    8.748270E-10
          1862.52    8.851450E-10
         1864.573    8.955514E-10
         1866.628    9.060425E-10
         1868.686    9.166179E-10
         1870.746    9.273087E-10
         1872.808    9.381395E-10
         1874.872    9.490524E-10
         1876.939    9.600589E-10
         1879.008    9.711503E-10
         1881.079    9.815427E-10
         1883.153    9.920480E-10
         1885.229     1.002624E-9
         1887.307     1.013266E-9
         1889.387     1.023985E-9
         1891.471     3.365254E-8
         1893.555     8.025341E-8
         1895.643     1.273729E-7
         1897.732     1.749857E-7
         1899.823     2.230740E-7
         1901.919     2.717333E-7
         1904.014     3.208540E-7
         1906.113     3.705134E-7
         1908.215     4.206880E-7
         1910.317     5.189073E-7
         1912.424     8.875646E-7
         1914.532     1.259807E-6
         1916.643     1.636340E-6
         1918.755     2.016485E-6
          1920.87     2.400848E-6
         1922.988     2.789338E-6
         1925.107     3.181706E-6
          1927.23     3.578539E-6
         1929.354     3.979073E-6
         1931.481     4.203425E-6
          1933.61     4.350744E-6
          1935.74     4.499388E-6
         1937.875     4.649598E-6
         1940.011     4.801064E-6
         1942.149     4.954295E-6
          1944.29     5.108963E-6
         1946.434     5.265081E-6
          1948.58     5.422647E-6
         1950.728     5.572836E-6
         1952.878     5.707046E-6
          1955.03     5.842398E-6
         1957.185     5.979024E-6
         1959.343     6.116854E-6
         1961.503     6.256077E-6
         1963.665     6.396600E-6
         1965.829     6.538287E-6
         1967.996     6.681281E-6
         1970.167     6.824883E-6
         1972.339     6.961095E-6
         1974.512     7.098401E-6
         1976.689     7.236945E-6
         1978.868     7.376655E-6
         1981.049     7.517666E-6
         1983.233     7.660001E-6
         1985.418     7.803449E-6
         1987.607     7.948172E-6
         1989.798     8.094090E-6
         1991.992     8.332939E-6
         1994.188     8.583325E-6
         1996.386     8.835987E-6
         1998.586     9.090816E-6
         2000.789     9.351103E-6
         2002.996     9.619602E-6
         2005.203     9.890655E-6
         2007.414     1.016468E-5
         2009.627     1.044156E-5
         2011.841     1.068072E-5
          2014.06     1.091425E-5
         2016.279     1.114985E-5
         2018.502     1.138791E-5
         2020.727     1.162827E-5
         2022.955     1.187088E-5
         2025.185     1.211586E-5
         2027.417     1.236322E-5
         2029.652     1.261297E-5
         2031.889     1.306555E-5
         2034.129     1.356027E-5
         2036.371     1.406032E-5
         2038.616     1.456565E-5
         2040.864     1.507616E-5
         2043.112     1.559153E-5
         2045.365     1.611253E-5
         2047.621     1.663920E-5
         2049.877     1.717077E-5
         2052.137     1.774174E-5
         2054.399     1.832045E-5
         2056.664     1.890507E-5
         2058.931     1.949569E-5
         2061.201     2.009156E-5
         2063.472     2.069248E-5
         2065.747     2.129963E-5
         2068.024     2.191284E-5
         2070.304     2.254404E-5
         2072.586     2.325980E-5
         2074.871     2.398253E-5
         2077.157     2.471211E-5
         2079.447     2.544911E-5
          2081.74     2.619185E-5
         2084.034     2.694047E-5
         2086.332     2.769651E-5
         2088.632     2.845980E-5
         2090.933     2.932849E-5
          2093.24     3.035202E-5
         2095.546     3.138420E-5
         2097.856     3.242670E-5
         2100.169     3.347886E-5
         2102.483     3.453661E-5
         2104.802     3.560529E-5
         2107.121     3.668261E-5
         2109.444     3.777042E-5
         2111.769     3.899798E-5
         2114.097     4.027773E-5
         2116.428     4.156891E-5
          2118.76     4.287106E-5
         2121.097     4.418263E-5
         2123.434     4.550035E-5
         2125.775     4.682999E-5
         2128.118     4.817110E-5
         2130.463     4.957865E-5
         2132.813     5.122755E-5
         2135.163     5.288862E-5
         2137.518     5.456515E-5
         2139.875     5.627134E-5
         2142.231     5.798353E-5
         2144.594     5.971235E-5
         2146.958     6.145512E-5
         2149.325     6.321265E-5
         2151.693     6.537589E-5
         2154.065     6.771498E-5
          2156.44     7.007334E-5
         2158.817     7.245131E-5
         2161.197     7.484021E-5
         2163.578     7.723743E-5
         2165.964     7.965495E-5
         2168.353     8.209241E-5
         2170.743     8.472883E-5
         2173.135     8.778716E-5
         2175.529     9.086813E-5
         2177.929     9.397512E-5
         2180.329     9.709779E-5
         2182.733     1.002218E-4
         2185.138     1.033642E-4
         2187.547     1.065296E-4
         2189.959     1.097167E-4
         2192.372     1.138412E-4
         2194.789     1.180096E-4
         2197.208     1.222049E-4
         2199.632     1.264284E-4
         2202.056     1.314367E-4
         2204.482     1.366605E-4
         2206.912     1.419717E-4
         2209.345     1.473679E-4
         2211.782     1.539829E-4
         2214.219     1.611171E-4
          2216.66     1.683709E-4
         2219.104     1.757414E-4
         2221.549     1.832061E-4
         2223.998     1.907782E-4
         2226.449     1.984669E-4
         2228.904     2.062736E-4
         2231.361     2.153668E-4
          2233.82     2.255450E-4
         2236.284     2.358890E-4
         2238.748     2.463795E-4
         2241.217     2.570161E-4
         2243.687     2.677758E-4
         2246.159     2.786914E-4
         2248.636     2.897747E-4
         2251.114     3.024898E-4
         2253.597     3.172339E-4
          2256.08     3.321753E-4
         2258.567     3.473374E-4
         2261.057     3.626909E-4
         2263.548     3.782146E-4
         2266.045     3.939671E-4
         2268.542     4.099176E-4
         2271.042     4.280391E-4
         2273.546     4.491507E-4
         2276.051     4.705373E-4
         2278.562     4.922319E-4
         2281.072     5.141711E-4
         2283.588     5.363852E-4
         2286.104     5.588642E-4
         2288.623     5.816334E-4
         2291.147     6.080717E-4
         2293.672     6.388801E-4
         2296.202     6.701371E-4
         2298.732     7.020342E-4
         2301.266     7.343494E-4
         2303.803     7.670639E-4
         2306.342     8.001924E-4
         2308.885     8.337827E-4
         2311.431     8.723392E-4
         2313.979     9.149631E-4
          2316.53     9.581418E-4
         2319.082     0.001001853
         2321.639     0.001046088
         2324.198     0.001090844
          2326.76      0.00113616
         2329.325     0.001182034
         2331.892     0.001235348
         2334.463     0.001291818
         2337.038     0.001349017
         2339.613     0.001406851
         2342.193     0.001465342
         2344.774     0.001524451
         2347.357     0.001584256
         2349.947     0.001644828
         2352.536     0.001712136
         2355.131     0.001780422
         2357.726     0.001849426
         2360.326     0.001919269
         2362.927     0.001989651
         2365.531     0.002060826
          2368.14     0.002132859
         2370.749     0.002205479
         2373.364      0.00227862
         2375.979     0.002352471
         2378.598     0.002427154
          2381.22     0.002502509
         2383.844     0.002578463
         2386.473      0.00265529
         2389.103     0.002732829
         2391.737     0.002804437
         2394.373     0.002873232
         2397.012     0.002942671
         2399.656     0.003012844
           2402.3     0.003083305
         2404.949     0.003154455
           2407.6     0.003226231
         2410.252     0.003297066
          2412.91     0.003353864
          2415.57     0.003411116
         2418.233     0.003468854
         2420.898     0.003526938
         2423.567     0.003585309
         2426.238     0.003644158
         2428.913     0.003703498
         2431.591      0.00375254
         2434.271     0.003794543
         2436.954     0.003836818
         2439.641     0.003879433
         2442.331     0.003922102
         2445.022     0.003965012
         2447.718     0.004008241
         2450.416     0.004049433
         2453.117     0.004078033
         2455.822     0.004106777
         2458.528     0.004135654
         2461.239     0.004164611
         2463.951     0.004193576
         2466.669     0.004222713
         2469.387     0.004251969
         2472.108     0.004273871
         2474.834     0.004293672
         2477.561     0.004313505
         2480.294     0.004333401
         2483.027     0.004353247
         2485.764     0.004373155
         2488.504     0.004393118
         2491.246     0.004410121
         2493.994     0.004423543
         2496.742     0.004436942
         2499.494     0.004450337
          2502.25     0.004463719
         2505.007     0.004477083
          2507.77      0.00449045
         2510.533     0.004503272
         2513.302     0.004513899
         2516.072     0.004524477
         2518.844     0.004535017
         2521.622     0.004545561
         2524.401     0.004556075
         2527.185      0.00456656
         2529.969     0.004576996
         2532.759     0.004584672
         2535.551      0.00459225
         2538.344     0.004594761
         2541.144     0.004591831
         2543.946     0.004588866
          2546.75     0.004585799
         2549.558     0.004582633
         2552.367     0.004577928
          2555.18     0.004572843
         2557.997     0.004567646
         2560.817     0.004562389
         2563.639     0.004557145
         2566.465     0.004551786
         2569.294     0.004546316
         2572.128     0.004539147
         2574.962     0.004531334
           2577.8     0.004523398
         2580.643     0.004515392
         2583.486     0.004507484
         2586.336     0.004499442
         2589.186     0.004491282
         2592.039     0.004480656
         2594.897     0.004468943
         2597.757     0.004457096
         2600.622     0.004445153
         2603.487     0.004433306
         2606.357     0.004421304
         2609.231     0.004409154
         2612.106     0.004395252
         2614.985     0.004380591
          2617.87     0.004365759
         2620.754      0.00435085
         2623.643     0.004335968
         2626.536     0.004320921
         2629.431      0.00430571
         2632.328     0.004287524
         2635.232     0.004268444
         2638.135     0.004249197
         2641.045     0.004229813
         2643.955     0.004210386
          2646.87      0.00419076
         2649.788     0.004170947
         2652.708     0.004149393
         2655.633     0.004127494
          2658.56     0.004105415
          2661.49      0.00408323
         2664.424      0.00406094
          2667.36      0.00403846
         2670.302     0.004015299
         2673.244     0.003987979
         2676.193     0.003960403
         2679.142      0.00393263
         2682.094     0.003904771
         2685.052     0.003876714
         2688.012     0.003848446
         2690.975     0.003819563
          2693.94     0.003789678
          2696.91     0.003759546
         2699.883     0.003729179
         2702.858     0.003705487
         2705.839     0.003681737
         2708.822     0.003657681
         2711.807     0.003632221
         2714.796     0.003605697
         2717.789     0.003578832
         2720.785     0.003551652
         2723.785     0.003524198
         2726.788     0.003496401
         2729.792     0.003468272
         2732.802     0.003438167
         2735.814      0.00340758
          2738.83     0.003376629
         2741.849     0.003345345
         2744.872     0.003313713
         2747.898     0.003281712
         2750.926     0.003245986
         2753.958     0.003202369
         2756.994     0.003158622
         2760.034      0.00311474
         2763.076     0.003070677
         2766.121     0.003026504
         2769.172      0.00298215
         2772.223     0.002936642
         2775.281     0.002890554
         2778.339     0.002844375
           2781.4     0.002798023
         2784.468     0.002751457
         2787.536     0.002704798
          2790.61     0.002657987
         2793.685     0.002611212
         2796.765      0.00256428
         2799.848     0.002517216
         2802.933     0.002469983
         2806.025      0.00242257
         2809.117      0.00237507
         2812.213     0.002327423
         2815.314     0.002279644
         2818.417     0.002231736
         2821.524      0.00218366
         2824.633     0.002135449
         2827.749     0.002087058
         2830.865      0.00203925
         2833.985     0.001993025
         2837.109      0.00194668
         2840.236     0.001900225
         2843.368     0.001853542
         2846.501     0.001806782
         2849.641     0.001759854
         2852.781     0.001715719
         2855.924     0.001671842
         2859.074     0.001627808
         2862.226     0.001583658
         2865.381     0.001539387
          2868.54     0.001495001
         2871.701     0.001452604
         2874.866     0.001411866
         2878.036     0.001371026
         2881.208     0.001330084
         2884.385     0.001289033
         2887.563       0.0012479
         2890.748     0.001207965
         2893.935     0.001172318
         2897.123     0.001136602
         2900.317      0.00110054
         2903.515     0.001062263
         2906.715     0.001024062
          2909.92     9.859323E-4
         2913.126     9.531708E-4
         2916.338     9.205905E-4
         2919.552     8.880785E-4
         2922.773     8.556038E-4
         2925.993     8.232267E-4
         2929.217     7.909156E-4
         2932.448     7.629104E-4
         2935.679     7.363537E-4
         2938.916     7.098406E-4
         2942.155     6.833864E-4
         2945.399     6.569893E-4
         2948.646     6.306493E-4
         2951.895     6.070533E-4
         2955.151     5.853976E-4
         2958.407     5.638131E-4
         2961.668     5.422675E-4
         2964.933     5.207736E-4
           2968.2     4.993390E-4
         2971.474     4.798327E-4
         2974.748     4.627045E-4
         2978.027     4.456090E-4
          2981.31     4.285518E-4
         2984.595     4.115401E-4
         2987.887     3.945550E-4
         2991.179     3.713872E-4
         2994.477     3.370900E-4
         2997.778     3.028861E-4
         3001.083     2.767362E-4
         3004.391     2.669841E-4
         3007.702     2.572618E-4
         3011.019     2.474786E-4
         3014.337     2.375596E-4
         3017.658     2.276674E-4
         3020.987     2.184727E-4
         3024.317     2.109227E-4
         3027.651     2.033928E-4
         3030.987     1.958479E-4
         3034.328     1.882287E-4
         3037.673     1.806306E-4
         3041.022     1.735369E-4
         3044.375     1.675632E-4
         3047.731     1.616066E-4
         3051.089     1.556343E-4
         3054.454     1.496004E-4
          3057.82     1.435896E-4
         3061.191     1.380343E-4
         3064.565     1.333009E-4
         3067.944     1.285812E-4
         3071.326     1.238588E-4
          3074.71     1.191270E-4
           3078.1     1.144072E-4
         3081.495     1.101611E-4
          3084.89     1.065182E-4
         3088.292     1.028830E-4
         3091.696     9.917845E-5
         3095.102     9.540174E-5
         3098.516     9.163274E-5
          3101.93     8.859251E-5
         3105.351     8.609124E-5
         3108.773     8.358008E-5
           3112.2     8.094010E-5
         3115.631     7.822250E-5
         3119.064     7.549268E-5
         3122.504     7.328932E-5
         3125.945     7.128045E-5
         3129.391     6.926033E-5
         3132.841     6.709719E-5
         3136.294     6.489461E-5
         3139.752     6.268105E-5
         3143.211     6.096083E-5
         3146.678     5.926943E-5
         3150.145     5.756946E-5
         3153.618     5.581755E-5
         3157.095     5.405702E-5
         3160.573     5.235934E-5
         3164.059     5.101086E-5
         3167.546     4.965701E-5
         3171.039     4.828829E-5
         3174.533     4.689809E-5
         3178.031     4.550107E-5
         3181.536     4.421866E-5
         3185.044     4.308832E-5
         3188.555     4.195237E-5
         3192.068     4.079784E-5
         3195.587     3.962745E-5
          3199.11     3.845129E-5
         3202.637     3.746510E-5
         3206.167     3.654034E-5
           3209.7     3.561141E-5
         3213.239     3.466722E-5
         3216.781     3.371742E-5
         3220.327     3.278095E-5
         3223.877     3.201842E-5
         3227.431     3.125198E-5
         3230.989     3.046881E-5
         3234.549     2.964838E-5
         3238.115     2.882339E-5
         3241.685     2.807782E-5
         3245.259     2.742211E-5
         3248.836     2.676310E-5
         3252.418     2.610058E-5
         3256.003     2.543466E-5
         3259.591     2.476571E-5
         3263.186     2.422021E-5
         3266.781     2.368891E-5
         3270.383     2.315208E-5
         3273.988     2.259127E-5
         3277.596     2.202789E-5
         3281.209     2.150197E-5
         3284.826     2.105439E-5
         3288.449     2.060430E-5
         3292.073     2.011748E-5
           3295.7     1.960199E-5
         3299.335     1.908335E-5
          3302.97     1.866370E-5
         3306.614     1.826421E-5
         3310.257     1.786397E-5
         3313.906     1.747311E-5
         3317.559     1.708029E-5
         3321.215     1.670234E-5
         3324.878     1.635574E-5
         3328.542     1.600775E-5
         3332.211     1.565027E-5
         3335.885     1.528598E-5
          3339.56     1.492003E-5
         3343.244     1.465323E-5
         3346.927     1.439913E-5
         3350.619     1.413263E-5
         3354.311     1.381138E-5
         3358.007     1.348846E-5
          3361.71     1.319958E-5
         3365.415     1.295153E-5
         3369.126     1.270193E-5
         3372.839     1.243139E-5
         3376.557     1.215316E-5
         3380.279     1.188042E-5
         3384.004     1.169199E-5
         3387.736     1.150235E-5
         3391.469     1.129104E-5
         3395.208     1.104624E-5
         3398.953     1.080003E-5
         3402.698     1.059146E-5
         3406.449     1.039676E-5
         3410.204     1.020321E-5
         3413.964     1.004710E-5
         3417.727     9.890163E-6
         3421.493     9.721706E-6
         3425.265     9.535851E-6
         3429.043     9.348916E-6
         3432.821     9.171535E-6
         3436.606     8.996637E-6
         3440.394     8.822241E-6
         3444.185     8.659468E-6
         3447.984     8.495646E-6
         3451.783     8.350822E-6
         3455.588     8.227522E-6
         3459.398     8.103532E-6
         3463.211     7.955146E-6
         3467.029     7.801479E-6
          3470.85     7.653384E-6
         3474.678     7.526590E-6
         3478.506     7.399217E-6
         3482.339     7.279954E-6
          3486.18     7.165547E-6
         3490.023     7.050567E-6
         3493.871     6.934977E-6
          3497.72     6.818794E-6
         3501.576     6.701951E-6
         3505.437     6.584526E-6
         3509.301     6.466431E-6
          3513.17     6.371848E-6
         3517.041     6.282113E-6
         3520.918     6.188314E-6
         3524.799     6.082688E-6
         3528.685     5.976456E-6
         3532.575     5.889499E-6
         3536.468     5.812264E-6
         3540.368     5.731651E-6
         3544.269     5.623323E-6
         3548.176     5.514317E-6
         3552.088     5.429034E-6
         3556.004     5.364593E-6
         3559.924     5.299765E-6
         3563.846     5.204636E-6
         3567.777     5.108267E-6
         3571.708     5.024832E-6
         3575.644     4.958413E-6
         3579.588     4.891534E-6
         3583.534     4.824361E-6
         3587.484     4.756798E-6
         3591.439     4.688835E-6
         3595.396     4.620513E-6
          3599.36     4.551746E-6
         3603.328     4.495909E-6
         3607.301     4.442306E-6
         3611.277     4.383246E-6
         3615.256     4.312979E-6
         3619.242     4.242265E-6
         3623.234     4.184234E-6
         3627.226     4.128998E-6
         3631.223     4.073409E-6
         3635.228     4.017404E-6
         3639.237     3.961061E-6
         3643.247     3.904438E-6
         3647.261     3.847472E-6
         3651.284     3.795388E-6
         3655.307     3.754329E-6
         3659.335     3.713013E-6
         3663.371     3.657493E-6
         3667.408     3.598942E-6
         3671.453     3.546005E-6
         3675.498     3.503573E-6
         3679.552     3.460835E-6
         3683.606     3.417877E-6
         3687.665     3.374657E-6
         3691.732     3.331129E-6
           3695.8     3.287379E-6
         3699.876     3.243317E-6
         3703.953     3.199031E-6
         3708.039     3.154430E-6
         3712.124     3.118605E-6
         3716.215     3.090900E-6
         3720.313     3.061655E-6
         3724.413     3.016101E-6
         3728.521     2.970221E-6
         3732.629     2.935377E-6
         3736.746     2.906652E-6
         3740.863     2.874057E-6
         3744.985     2.827196E-6
         3749.116     2.780004E-6
         3753.247     2.746652E-6
         3757.386     2.716908E-6
         3761.526     2.680347E-6
         3765.675     2.632068E-6
         3769.824     2.583549E-6
         3773.978     2.569657E-6
         3778.141     2.557201E-6
         3782.304     2.534504E-6
         3786.473     2.503412E-6
         3790.648     2.472122E-6
         3794.824     2.440628E-6
          3799.01     2.408908E-6
         3803.196     2.377050E-6
         3807.389     2.344982E-6
         3811.586     2.319804E-6
          3815.79     2.306167E-6
         3819.994     2.292448E-6
         3824.203     2.259669E-6
         3828.419     2.226649E-6
          3832.64     2.193427E-6
         3836.865     2.160003E-6
         3841.095     2.131354E-6
         3845.331     2.116817E-6
         3849.568     2.102197E-6
          3853.81     2.087455E-6
         3858.058     2.072607E-6
         3862.312     2.047020E-6
         3866.572     2.012292E-6
         3870.832     1.981233E-6
         3875.099     1.965859E-6
         3879.369     1.950392E-6
         3883.646     1.917854E-6
         3887.927     1.882179E-6
         3892.213     1.856620E-6
         3896.504     1.840612E-6
           3900.8     1.824498E-6
           3905.1     1.808262E-6
         3909.403     1.791931E-6
         3913.712     1.775467E-6
         3918.027     1.758898E-6
         3922.346     1.742211E-6
          3926.67     1.725409E-6
         3930.999     1.708503E-6
         3935.333     1.691490E-6
         3939.669     1.674383E-6
         3944.012     1.637905E-6
          3948.36     1.599624E-6
         3952.712     1.574170E-6
          3957.07     1.556483E-6
         3961.432     1.538676E-6
         3965.799     1.520733E-6
         3970.169     1.503515E-6
         3974.546     1.506631E-6
         3978.927     1.509753E-6
         3983.314     1.496689E-6
         3987.705     1.478288E-6
         3992.101     1.459761E-6
           3996.5     1.441116E-6
         4000.906     1.421713E-6
         4005.316     1.399777E-6
         4009.732     1.377822E-6
         4014.152     1.355826E-6
         4018.577     1.333812E-6
         4023.008     1.311763E-6
          4027.44     1.289702E-6
          4031.88     1.276836E-6
         4036.325     1.276530E-6
         4040.775     1.272415E-6
         4045.229     1.250223E-6
         4049.689     1.228017E-6
         4054.153     1.205776E-6
          4058.62     1.183532E-6
         4063.094     1.161248E-6
         4067.574     1.138946E-6
         4072.058     1.126703E-6
         4076.547     1.126336E-6
         4081.041     1.120868E-6
         4085.538     1.098475E-6
         4090.042     1.076263E-6
         4094.548     1.075885E-6
         4099.064     1.075504E-6
         4103.583     1.057586E-6
         4108.107     1.035076E-6
         4112.636     1.012557E-6
         4117.165     9.900500E-7
         4121.706     9.758144E-7
          4126.25     9.753963E-7
         4130.799     9.710818E-7
         4135.353     9.484697E-7
         4139.911     9.258522E-7
         4144.473     9.250108E-7
          4149.04     9.246014E-7
         4153.616     9.065797E-7
         4158.195     8.838842E-7
         4162.779     8.746870E-7
         4167.366     8.742645E-7
         4171.962     8.643092E-7
         4176.559     8.415671E-7
         4181.163     8.244531E-7
         4185.772     8.240328E-7
         4190.385     8.217462E-7
         4195.006     7.989319E-7
         4199.629     7.761361E-7
         4204.261     7.751158E-7
         4208.894     7.759956E-7
         4213.531     7.768750E-7
         4218.178     7.777566E-7
         4222.826     7.648769E-7
         4227.484     7.430402E-7
         4232.142     7.315978E-7
          4236.81     7.324149E-7
         4241.478     7.260038E-7
         4246.151     7.039330E-7
         4250.835     6.858538E-7
         4255.519     6.866075E-7
         4260.212     6.873625E-7
         4264.907     6.881064E-7
         4269.606     6.888513E-7
         4274.315     6.683433E-7
         4279.025     6.458417E-7
         4283.744     6.417193E-7
         4288.464     6.424034E-7
         4293.194     6.430881E-7
         4297.925     6.437724E-7
         4302.661     6.312625E-7
         4307.406     6.083754E-7
         4312.152     5.961283E-7
         4316.909     5.967538E-7
         4321.665     5.973791E-7
         4326.432     5.980051E-7
         4331.199     5.926512E-7
         4335.971     5.694383E-7
         4340.753     5.498928E-7
         4345.537     5.504593E-7
          4350.33     5.510266E-7
         4355.123     5.515859E-7
         4359.926     5.521467E-7
          4364.73     5.289452E-7
          4369.54     5.053002E-7
         4374.359     5.034952E-7
         4379.179     5.040055E-7
         4384.009     5.045165E-7
          4388.84     5.050277E-7
          4393.68     5.055334E-7
         4398.521     5.060373E-7
         4403.368     5.065468E-7
         4408.225     5.070597E-7
         4413.082     4.919239E-7
          4417.95     4.676827E-7
         4422.817     4.577211E-7
         4427.696     4.581774E-7
         4432.574     4.586298E-7
         4437.458     4.590791E-7
         4442.353     4.595325E-7
         4447.248     4.599892E-7
         4452.153     4.494297E-7
         4457.059     4.247469E-7
          4461.97     4.100847E-7
         4466.891     4.104863E-7
         4471.813     4.108878E-7
         4476.745     4.112900E-7
         4481.678     4.116923E-7
         4486.618     4.120950E-7
         4491.564     4.124981E-7
         4496.514     4.129012E-7
         4501.473     4.061752E-7
         4506.433     3.824084E-7
         4511.401     3.656660E-7
         4516.375     3.674633E-7
         4521.355     3.692652E-7
         4526.337     3.710715E-7
         4531.325     3.728788E-7
          4536.32     3.746856E-7
         4541.321     3.764948E-7
         4546.328     3.783061E-7
         4551.339     3.801213E-7
         4556.357     3.819432E-7
          4561.38     3.762009E-7
         4566.406     3.503008E-7
          4571.44     3.320654E-7
         4576.479     3.336302E-7
         4581.527     3.351980E-7
         4586.575     3.367662E-7
         4591.632     3.383375E-7
         4596.691     3.399099E-7
         4601.758     3.414852E-7
         4606.832     3.430626E-7
          4611.91     3.446422E-7
         4616.994     3.462237E-7
         4622.084     3.478052E-7
          4627.18     3.493857E-7
         4632.278     3.376455E-7
         4637.385     3.091669E-7
         4642.497     2.951265E-7
         4647.615     2.964549E-7
         4652.738     2.977850E-7
         4657.868     2.991168E-7
         4663.002     3.004477E-7
         4668.141     3.017779E-7
         4673.287     3.031133E-7
         4678.438     3.044523E-7
         4683.596     3.057931E-7
         4688.759     3.071355E-7
         4693.928     3.084760E-7
           4699.1     3.098165E-7
         4704.281     3.111634E-7
         4709.467     3.125129E-7
         4714.658     3.138598E-7
         4719.856     3.152083E-7
         4725.059     2.845325E-7
         4730.268     2.543353E-7
          4735.48     2.554175E-7
         4740.701     2.565024E-7
         4745.927     2.575920E-7
         4751.159     2.586821E-7
         4756.396     2.597704E-7
          4761.64     2.608614E-7
         4766.889     2.619566E-7
         4772.142     2.630529E-7
         4777.402     2.641512E-7
         4782.669     2.652488E-7
         4787.941     2.663458E-7
          4793.22     2.674467E-7
         4798.504     2.685508E-7
         4803.791     2.696555E-7
         4809.087     2.707625E-7
         4814.389     2.718674E-7
         4819.696     2.729728E-7
         4825.009     2.740840E-7
         4830.328     2.729392E-7
         4835.653     2.372590E-7
         4840.981     2.080695E-7
         4846.318     2.089075E-7
         4851.661     2.097454E-7
         4857.009     2.105819E-7
         4862.364     2.114212E-7
         4867.724     2.122636E-7
          4873.09     2.131070E-7
         4878.457     2.139506E-7
         4883.838     2.147966E-7
         4889.222     2.156434E-7
         4894.612     2.164912E-7
         4900.008     2.173401E-7
         4905.409     2.181936E-7
         4910.814     2.190474E-7
         4916.228     2.198997E-7
         4921.648     2.207532E-7
         4927.074     2.216077E-7
         4932.505     2.224633E-7
          4937.94     2.233195E-7
         4943.386     2.241802E-7
         4948.833     2.250426E-7
         4954.289     2.259065E-7
          4959.75     2.267715E-7
         4965.216     2.276336E-7
         4970.692     2.284981E-7
         4976.169     2.293662E-7
         4981.658     2.302364E-7
         4987.146     2.311067E-7
         4992.642     2.115517E-7
         4998.148     1.696058E-7
         5003.656     1.558965E-7
         5009.174     1.566005E-7
         5014.694     1.573048E-7
         5020.219     1.580102E-7
         5025.756     1.587198E-7
         5031.294     1.594290E-7
         5036.843     1.601379E-7
         5042.394     1.608482E-7
         5047.955     1.615617E-7
         5053.517     1.622737E-7
         5059.085     1.629856E-7
         5064.665     1.637016E-7
         5070.246     1.644183E-7
         5075.838     1.651367E-7
         5081.431     1.658546E-7
         5087.036     1.665721E-7
         5092.641     1.672912E-7
         5098.252     1.680128E-7
         5103.875     1.687361E-7
         5109.499     1.694597E-7
         5115.134     1.701850E-7
         5120.771     1.709107E-7
         5126.418     1.716380E-7
         5132.067     1.723645E-7
         5137.722     1.730902E-7
         5143.389     1.738193E-7
         5149.056     1.745499E-7
         5154.735     1.752824E-7
         5160.415     1.760150E-7
         5166.107     1.767494E-7
         5171.799     1.774840E-7
         5177.498     1.782197E-7
         5183.208     1.789554E-7
         5188.919     1.796900E-7
         5194.643     1.804288E-7
         5200.366     1.811681E-7
         5206.102     1.819066E-7
         5211.838     1.826462E-7
         5217.581     1.833888E-7
         5223.336     1.841316E-7
         5229.091     1.848733E-7
         5234.859     1.856167E-7
         5240.627     1.863603E-7
         5246.407     1.871055E-7
         5252.188     1.878523E-7
         5257.975     1.886022E-7
         5263.774     1.893495E-7
         5269.574     1.900948E-7
         5275.383     1.394758E-7
         5281.199     9.579772E-8
         5287.018     9.617356E-8
          5292.85     9.654944E-8
         5298.682     9.692452E-8
         5304.523     9.730032E-8
         5310.371     9.767674E-8
         5316.228     9.805542E-8
         5322.085     9.843303E-8
          5327.95     9.880883E-8
         5333.826     9.918664E-8
         5339.703     9.956513E-8
          5345.59     9.994439E-8
         5351.483     1.003237E-7
         5357.385     1.007022E-7
         5363.289     1.010809E-7
         5369.198     1.014602E-7
         5375.117     1.018385E-7
         5381.042     1.022173E-7
         5386.978     1.025983E-7
         5392.914     1.029785E-7
         5398.858     1.033583E-7
         5404.807     1.037384E-7
         5410.766     1.041193E-7
          5416.73     1.045006E-7
         5422.702     1.048815E-7
          5428.68     1.052618E-7
         5434.665     1.056426E-7
         5440.656     1.060238E-7
         5446.651     1.064053E-7
         5452.655     1.067865E-7
         5458.666     1.071670E-7
         5464.684     1.075481E-7
         5470.708     1.079294E-7
         5476.739     1.083093E-7
         5482.777     1.086896E-7
         5488.818     1.090701E-7
         5494.869     1.094513E-7
         5500.926     1.098288E-7
         5506.991     1.101834E-7
         5513.062     1.105383E-7
         5519.139     1.108933E-7
         5525.221     1.112484E-7
         5531.312     1.116035E-7
          5537.41     1.119571E-7
         5543.514     1.123097E-7
         5549.625     1.126616E-7
         5555.743     1.130156E-7
         5561.868     1.133692E-7
         5567.996     1.137214E-7
         5574.134     1.140739E-7
         5580.279     1.144266E-7
         5586.431     1.147773E-7
          5592.59     1.151282E-7
         5598.755     1.154792E-7
         5604.927     1.157114E-7
         5611.103     1.159135E-7
         5617.289     1.161158E-7
         5623.481     1.163170E-7
         5629.681     1.165173E-7
         5635.887     1.167175E-7
           5642.1     1.169178E-7
         5648.316     1.171180E-7
         5654.543     1.173184E-7
         5660.777     1.175188E-7
         5667.018     1.177192E-7
         5673.265     1.179184E-7
         5679.519     1.181167E-7
          5685.78     1.183150E-7
         5692.045     1.185131E-7
          5698.32     1.187113E-7
         5704.602     1.189096E-7
         5710.891     1.191080E-7
         5717.187     1.193063E-7
         5723.489     1.195046E-7
         5729.799     1.197028E-7
         5736.112     1.199010E-7
         5742.436     1.200984E-7
         5748.766     1.202945E-7
         5755.104     1.204922E-7
         5761.448     1.206904E-7
           5767.8     1.208887E-7
         5774.155     1.210853E-7
         5780.521     1.212814E-7
         5786.893     1.214795E-7
         5793.272     1.216764E-7
         5799.659     1.218722E-7
         5806.053     1.220701E-7
         5812.453     1.222673E-7
         5818.858     1.224628E-7
         5825.272     1.226603E-7
         5831.694     1.228576E-7
         5838.123     1.230531E-7
         5844.559     1.232503E-7
         5851.002     1.234478E-7
         5857.453     1.236430E-7
         5863.907     1.238395E-7
         5870.368     1.194765E-7
         5876.843     3.922368E-8
         5883.321              0.
         5889.807              0.
           5896.3              0.
           5902.8              0.
         5909.304              0.
         5915.819              0.
          5922.34              0.
         5928.869              0.
         5935.405              0.
         5941.945              0.
         5948.492              0.
         5955.053              0.
         5961.618              0.
          5968.19              0.
         5974.767              0.
         5981.356              0.
         5987.947              0.
         5994.548              0.
         6001.157              0.
         6007.769              0.
         6014.396              0.
         6021.022              0.
         6027.663              0.
         6034.308              0.
         6040.954              0.
         6047.617              0.
          6054.28              0.
         6060.958              0.
         6067.636              0.
         6074.329              0.
         6081.021              0.
         6087.722              0.
         6094.437              0.
         6101.152              0.
         6107.878              0.
         6114.611              0.
         6121.355              0.
           6128.1              0.
         6134.853              0.
         6141.616              0.
         6148.386              0.
         6155.167              0.
          6161.95              0.
         6168.746              0.
          6175.54              0.
         6182.348              0.
         6189.163              0.
         6195.986              0.
          6202.82              0.
         6209.655              0.
         6216.497              0.
          6223.35              0.
         6230.211              0.
         6237.083              0.
         6243.955              0.
         6250.838              0.
         6257.729              0.
         6264.624              0.
          6271.53              0.
         6278.444              0.
         6285.366              0.
         6292.294              0.
         6299.231              0.
         6306.176              0.
         6313.124              0.
         6320.084              0.
         6327.051              0.
         6334.026              0.
         6341.009              0.
         6347.999              0.
         6354.994              0.
            6362.              0.
         6369.013              0.
         6376.034              0.
         6383.063              0.
           6390.1              0.
         6397.145              0.
         6404.193              0.
         6411.253              0.
         6418.321              0.
         6425.397              0.
          6432.48              0.
         6439.571              0.
          6446.67              0.
         6453.774              0.
         6460.889              0.
         6468.011              0.
         6475.142              0.
          6482.28              0.
         6489.426              0.
         6496.576              0.
         6503.738              0.
         6510.908              0.
         6518.085              0.
         6525.271              0.
         6532.465              0.
         6539.666              0.
         6546.872              0.
         6554.089              0.
         6561.314              0.
         6568.548              0.
         6575.789              0.
         6583.038              0.
         6590.295              0.
         6597.557              0.
          6604.83              0.
         6612.111              0.
           6619.4              0.
         6626.698              0.
         6634.003              0.
         6641.316              0.
         6648.634              0.
         6655.964              0.
         6663.301              0.
         6670.647              0.
         6678.001              0.
         6685.363              0.
         6692.729              0.
         6700.107              0.
         6707.494              0.
         6714.888              0.
         6722.291              0.
         6729.701              0.
          6737.12              0.
         6744.543              0.
         6751.979              0.
         6759.422              0.
         6766.874              0.
         6774.333              0.
         6781.802              0.
         6789.278              0.
         6796.759              0.
         6804.251              0.
         6811.752              0.
         6819.262              0.
          6826.78              0.
         6834.306              0.
         6841.836              0.
         6849.378              0.
         6856.929              0.
         6864.488              0.
         6872.056              0.
         6879.632              0.
         6887.216              0.
         6894.805              0.
         6902.405              0.
         6910.015              0.
         6917.632              0.
         6925.258              0.
         6932.893              0.
         6940.536              0.
         6948.183              0.
         6955.839              0.
         6963.511              0.
         6971.188              0.
         6978.873              0.
         6986.566              0.
         6994.261              0.
         7001.975              0.
         7009.694              0.
         7017.422              0.
         7025.158              0.
         7032.902              0.
         7040.652              0.
          7048.41              0.
         7056.184              0.
         7063.962              0.
          7071.75              0.
         7079.542              0.
          7087.35              0.
          7095.16              0.
         7102.981              0.
         7110.812              0.
         7118.647              0.
         7126.499              0.
         7134.351              0.
          7142.22              0.
         7150.089              0.
         7157.968              0.
         7165.863              0.
         7173.758              0.
         7181.671              0.
         7189.584              0.
         7197.514              0.
         7205.444              0.
         7213.384              0.
          7221.34              0.
         7229.297              0.
         7237.271              0.
         7245.245              0.
         7253.236              0.
         7261.228              0.
         7269.229              0.
         7277.243              0.
         7285.265              0.
           7293.3              0.
         7301.336              0.
         7309.381              0.
         7317.439              0.
         7325.506              0.
         7333.586              0.
         7341.667              0.
         7349.764              0.
         7357.863              0.
          7365.97              0.
          7374.09              0.
         7382.219              0.
         7390.362              0.
         7398.505              0.
         7406.661              0.
         7414.826              0.
         7422.996              0.
         7431.184              0.
         7439.372              0.
         7447.573              0.
         7455.783              0.
         7464.002              0.
         7472.231              0.
         7480.464              0.
          7488.71              0.
         7496.966              0.
         7505.231              0.
         7513.505              0.
         7521.788              0.
         7530.076              0.
         7538.377              0.
         7546.688              0.
         7555.007              0.
         7563.335              0.
         7571.673              0.
         7580.021              0.
         7588.373              0.
         7596.738              0.
         7605.113              0.
         7613.497              0.
          7621.89              0.
         7630.292              0.
         7638.704              0.
         7647.121              0.
         7655.551              0.
         7663.991              0.
         7672.439              0.
         7680.897              0.
         7689.365              0.
         7697.838              0.
         7706.324              0.
         7714.819              0.
         7723.324              0.
         7731.838              0.
         7740.362              0.
         7748.895              0.
         7757.434              0.
         7765.985              0.
         7774.546              0.
         7783.117              0.
         7791.697              0.
         7800.287              0.
         7808.886              0.
          7817.49              0.
         7826.108              0.
         7834.736              0.
         7843.373              0.
          7852.02              0.
         7860.676              0.
         7869.337              0.
         7878.013              0.
         7886.697              0.
         7895.392              0.
         7904.096              0.
         7912.809              0.
         7921.532              0.
         7930.261              0.
         7939.003              0.
         7947.755              0.
         7956.517              0.
         7965.288              0.
         7974.069              0.
          7982.86              0.
         7991.656     5.295207E-9
         8000.466     3.184629E-8
         8009.286     3.195034E-8
         8018.115     3.205098E-8
         8026.954     3.214826E-8
         8035.803     3.224224E-8
         8044.658     3.233283E-8
         8053.526     3.242008E-8
         8062.404     3.250402E-8
         8071.292     3.258468E-8
          8080.19     3.266197E-8
         8089.098     3.273597E-8
         8098.016     3.280670E-8
         8106.938     3.276681E-8
         8115.875     3.269441E-8
         8124.822     3.262049E-8
         8133.779     3.254506E-8
         8142.746     3.246811E-8
         8151.723     3.238964E-8
         8160.709     3.230964E-8
         8169.701     3.222819E-8
         8178.708     3.214522E-8
         8187.724     3.206073E-8
          8196.75     3.197474E-8
         8205.786     3.204095E-8
         8214.832     3.218938E-8
         8223.884     3.233302E-8
          8232.95     3.247204E-8
         8242.026     3.260638E-8
         8251.112     3.273595E-8
         8260.208     3.286091E-8
         8269.314     3.298122E-8
         8278.431     3.309686E-8
         8287.552     3.320777E-8
         8296.688     3.331412E-8
         8305.835     3.338694E-8
         8314.991     3.343927E-8
         8324.153     3.348761E-8
         8333.334     3.353206E-8
         8342.521     3.357258E-8
         8351.713     3.363845E-8
          8360.92     3.382941E-8
         8370.138     3.401773E-8
         8379.365     3.420329E-8
         8388.603     3.438611E-8
          8397.85     3.456611E-8
         8407.104     3.474383E-8
         8416.371     3.491892E-8
         8425.649     3.509111E-8
         8434.934     3.526027E-8
         8444.236     3.542660E-8
         8453.546     3.558985E-8
         8462.865     3.575002E-8
         8472.189     3.590701E-8
         8481.525     3.606090E-8
          8490.88     3.621176E-8
          8500.24     3.635791E-8
         8509.611     3.644834E-8
         8518.987     3.653565E-8
         8528.384     3.661990E-8
          8537.78     3.670095E-8
         8547.188     3.677884E-8
         8556.615     3.685360E-8
         8566.043     3.692503E-8
         8575.486     3.699322E-8
          8584.94     3.705809E-8
         8594.409     3.711961E-8
         8603.879     3.709996E-8
         8613.359     3.696598E-8
         8622.854     3.683009E-8
          8632.36     3.669237E-8
         8641.882     3.655273E-8
         8651.403     3.641044E-8
         8660.937     3.626078E-8
         8670.484     3.610924E-8
         8680.043     3.595587E-8
         8689.611     3.580067E-8
         8699.191     3.564353E-8
         8708.781     3.540464E-8
         8718.382     3.515731E-8
         8727.988     3.490916E-8
          8737.61     3.465987E-8
         8747.242     3.440962E-8
         8756.886     3.415840E-8
         8766.539     3.390620E-8
         8776.203     3.365303E-8
         8785.879     3.339883E-8
          8795.56     3.314381E-8
         8805.256     3.302599E-8
         8814.963     3.302173E-8
         8824.681     3.301341E-8
         8834.408     3.300098E-8
         8844.147     3.298439E-8
         8853.893     3.296361E-8
         8863.653     3.293858E-8
         8873.425     3.290928E-8
         8883.207     3.287565E-8
            8893.     3.283766E-8
         8902.804     3.267045E-8
         8912.618     3.219098E-8
         8922.438     3.171341E-8
         8932.274     3.123731E-8
         8942.122     3.076285E-8
         8951.979     3.028914E-8
         8961.849     2.981302E-8
         8971.728     2.933895E-8
         8981.618     2.886688E-8
         8991.515     2.839710E-8
         9001.427     2.794890E-8
         9011.351     2.761889E-8
         9021.284     2.728912E-8
         9031.229     2.695957E-8
         9041.186     2.663026E-8
         9051.147     2.630139E-8
         9061.126     2.597258E-8
         9071.115     2.564406E-8
         9081.115     2.531583E-8
         9091.126     2.498793E-8
         9101.148     2.465242E-8
         9111.182     2.425684E-8
         9121.221     2.386303E-8
         9131.276     2.347059E-8
         9141.343     2.307976E-8
          9151.42     2.269062E-8
         9161.509     2.230312E-8
         9171.608     2.191733E-8
         9181.719     2.153332E-8
         9191.836     2.115122E-8
          9201.97     2.081411E-8
         9212.113     2.065612E-8
          9222.27     2.049529E-8
         9232.436     2.033161E-8
         9242.613     2.016507E-8
         9252.798     1.999483E-8
         9262.998     1.981933E-8
          9273.21     1.964093E-8
         9283.433     1.945967E-8
         9293.667     1.927548E-8
         9303.912     1.903254E-8
         9314.169     1.869884E-8
         9324.432     1.836605E-8
         9334.711     1.803386E-8
         9345.002     1.770244E-8
         9355.304     1.737183E-8
         9365.617     1.704202E-8
         9375.941     1.671307E-8
         9386.278     1.638493E-8
          9396.62     1.605785E-8
         9406.979     1.573217E-8
          9417.35     1.540774E-8
         9427.731     1.508417E-8
         9438.124     1.476152E-8
         9448.529     1.443974E-8
          9458.94     1.411908E-8
         9469.368     1.379922E-8
         9479.807     1.348034E-8
         9490.258     1.316241E-8
          9500.72     1.285623E-8
         9511.193     1.269511E-8
         9521.679     1.253327E-8
          9532.17     1.237079E-8
         9542.679     1.220749E-8
         9553.198     1.204351E-8
         9563.729     1.187882E-8
         9574.272     1.171343E-8
         9584.828     1.154732E-8
         9595.395     1.138054E-8
         9605.967     1.107908E-8
         9616.557     1.067955E-8
         9627.158     1.028747E-8
         9637.771     9.902907E-9
         9648.396     9.525751E-9
         9659.032     9.156052E-9
         9669.681     8.793790E-9
         9680.335     8.439175E-9
         9691.007     8.091781E-9
          9701.69     7.759146E-9
         9712.386     7.471795E-9
         9723.093     7.190005E-9
         9733.812     6.913773E-9
         9744.536     6.643240E-9
         9755.279     6.376307E-9
         9766.033     6.113317E-9
           9776.8     5.856105E-9
         9787.577     5.604697E-9
         9798.367     5.359031E-9
         9809.169     5.199512E-9
         9819.978     5.055688E-9
         9830.803     4.912738E-9
         9841.641     4.770722E-9
          9852.49     4.629655E-9
         9863.352     4.489539E-9
         9874.225     4.350377E-9
          9885.11     4.212159E-9
         9896.003     4.074961E-9
         9906.912     3.901987E-9
         9917.828     3.711875E-9
         9928.767     3.526241E-9
         9939.713     3.345314E-9
          9950.67     3.169044E-9
         9961.634     2.997464E-9
          9972.61     2.830476E-9
          9983.61     2.667903E-9
         9994.616     2.509992E-9
         10005.63     2.402928E-9
         10016.66     2.341680E-9
         10027.71     2.280941E-9
         10038.76     2.220838E-9
         10049.82     2.161300E-9
          10060.9     2.102280E-9
         10071.99     2.043893E-9
          10083.1     1.986018E-9
         10094.21     1.928780E-9
         10105.34    8.726933E-10
         10116.47              0.
         10127.62     3.375650E-9
         10138.79    5.186425E-10
         10149.96     4.144340E-9
         10161.16     7.586717E-9
         10172.35     2.978018E-9
         10183.56     2.683299E-9
         10194.79     5.528672E-9
         10206.03     5.623644E-9
         10217.29     1.836458E-9
         10228.54              0.
         10239.83     3.078937E-9
         10251.11     3.011511E-9
          10262.4     2.890625E-9
         10273.72     3.802241E-9
         10285.04     6.643083E-9
         10296.39     2.749531E-9
         10307.73              0.
          10319.1     6.295994E-9
         10330.47     4.180146E-9
         10341.85              0.
         10353.26    6.427576E-10
         10364.67    9.934369E-10
          10376.1              0.
         10387.53     2.485531E-9
         10398.99    3.123925E-10
         10410.45    1.935273E-10
         10421.92     3.250122E-9
         10433.41              0.
         10444.91    5.603671E-10
         10456.43     2.386436E-9
         10467.95    5.826784E-10
          10479.5              0.
         10491.04              0.
          10502.6    1.783058E-10
         10514.19     1.503137E-9
         10525.77     1.469337E-9
         10537.38     2.488412E-9
         10548.99     1.407770E-9
         10560.63     6.863542E-9
         10572.26     2.228230E-9
         10583.91              0.
         10595.59    3.025590E-10
         10607.26    5.245935E-10
         10618.96    5.078344E-10
         10630.66     1.015142E-9
         10642.38     1.989037E-9
         10654.11     2.161043E-9
         10665.85              0.
         10677.62              0.
         10689.38              0.
         10701.17     1.096959E-9
         10712.96    3.816369E-10
         10724.77    3.668534E-10
          10736.6    1.198914E-10
         10748.43     1.139093E-9
         10760.27    9.540180E-10
         10772.14    2.436686E-10
         10784.01    3.561134E-10
          10795.9    8.484053E-10
         10807.81    3.877265E-10
         10819.72    7.241673E-12
         10831.65    2.035580E-10
         10843.57              0.
         10855.53    1.211978E-10
         10867.51     1.294384E-9
         10879.48    6.357463E-10
         10891.48    7.067187E-10
         10903.48    4.563877E-10
          10915.5    2.334600E-10
         10927.52    2.630010E-10
         10939.58    1.453142E-10
         10951.64    3.445445E-10
         10963.71    2.069229E-10
         10975.79    2.004796E-10
         10987.88    9.913113E-11
           11000.    1.793145E-10
