#  Table pcf218wsys.tab  Mon 12:21:08 02-Jun-97

#      WAVELENGTH      THROUGHPUT
#       angstroms                

            1216.    5.206306E-21
          1217.34    5.279158E-21
         1218.682    5.352621E-21
         1220.026    5.426464E-21
         1221.371    5.484503E-21
         1222.717    5.542948E-21
         1224.065    5.601872E-21
         1225.414    5.661233E-21
         1226.765    5.721046E-21
         1228.117    5.781308E-21
         1229.471    5.842020E-21
         1230.826    5.894054E-21
         1232.183    5.940607E-21
         1233.542    5.987466E-21
         1234.901    6.034571E-21
         1236.262    6.081986E-21
         1237.625    6.129671E-21
         1238.989    6.177672E-21
         1240.355    6.222874E-21
         1241.722    6.259387E-21
         1243.091    6.296100E-21
         1244.461    6.332992E-21
         1245.833    6.370048E-21
         1247.207    6.407322E-21
         1248.582    6.444764E-21
         1249.957    6.482369E-21
         1251.335    6.511554E-21
         1252.715    6.540579E-21
         1254.095    6.569703E-21
         1255.478    6.598965E-21
         1256.862    6.628331E-21
         1258.247    6.657792E-21
         1259.634    6.687383E-21
         1261.023    6.711678E-21
         1262.413    6.734106E-21
         1263.805    6.756598E-21
         1265.198    6.779154E-21
         1266.592    6.801764E-21
         1267.989    6.824452E-21
         1269.387    6.847213E-21
         1270.786    6.866539E-21
         1272.187    6.883196E-21
         1273.588    6.899872E-21
         1274.992    6.916587E-21
         1276.399    6.933337E-21
         1277.805    6.950102E-21
         1279.214    6.966902E-21
         1280.624    6.981589E-21
         1282.035    6.993580E-21
         1283.449    7.005587E-21
         1284.864    7.017595E-21
          1286.28    7.029597E-21
         1287.698    7.041616E-21
         1289.117    7.053636E-21
         1290.538    7.064339E-21
         1291.961    7.072864E-21
         1293.385    7.081379E-21
         1294.811    7.089880E-21
         1296.238    7.098374E-21
         1297.668    7.106862E-21
         1299.098    7.115332E-21
          1300.53    7.122980E-21
         1301.963    7.129222E-21
         1303.398    7.135443E-21
         1304.835    7.141646E-21
         1306.274    7.147832E-21
         1307.713    7.153994E-21
         1309.155    7.160139E-21
         1310.597    7.165546E-21
         1312.042    7.169920E-21
         1313.489    7.174267E-21
         1314.937    7.178588E-21
         1316.386    7.182880E-21
         1317.837    7.187146E-21
          1319.29    7.191385E-21
         1320.744    7.194893E-21
           1322.2    7.197700E-21
         1323.657    7.200472E-21
         1325.117    7.203214E-21
         1326.578    7.205922E-21
         1328.039    7.208595E-21
         1329.503    7.211236E-21
         1330.969    7.213025E-21
         1332.436    7.214355E-21
         1333.905    7.215648E-21
         1335.376    7.216902E-21
         1336.847    7.218116E-21
         1338.321    7.219292E-21
         1339.796    7.220430E-21
         1341.273    7.220809E-21
         1342.752    7.221029E-21
         1344.232    7.221206E-21
         1345.713    7.221343E-21
         1347.197    7.221435E-21
         1348.682    7.221486E-21
         1350.169    7.221423E-21
         1351.657    7.220776E-21
         1353.146    7.220083E-21
         1354.638    7.218595E-21
         1356.131    7.216063E-21
         1357.627    7.213488E-21
         1359.123    7.210877E-21
         1360.621    7.208080E-21
         1362.121    7.205040E-21
         1363.622    7.201960E-21
         1365.126    7.198837E-21
          1366.63    7.195674E-21
         1368.137    7.192467E-21
         1369.645    7.189218E-21
         1371.155    7.185917E-21
         1372.667    7.182568E-21
          1374.18    7.179177E-21
         1375.694    7.175747E-21
         1377.211    7.172270E-21
         1378.729    7.168754E-21
         1380.249    7.165227E-21
         1381.771    7.161836E-21
         1383.294    7.158403E-21
         1384.818    7.154931E-21
         1386.345    7.151413E-21
         1387.874    7.147853E-21
         1389.403    7.144254E-21
         1390.935    7.140940E-21
         1392.468    7.137794E-21
         1394.002    7.134611E-21
          1395.54    7.131383E-21
         1397.078    7.128118E-21
         1398.618    7.124814E-21
          1400.16    7.121542E-21
         1401.703    7.118867E-21
         1403.248    7.116156E-21
         1404.795    7.113404E-21
         1406.343    7.110615E-21
         1407.894    7.107788E-21
         1409.446    7.104922E-21
         1410.999    7.102251E-21
         1412.555    7.099669E-21
         1414.112    7.097050E-21
          1415.67    7.094397E-21
         1417.231    7.091703E-21
         1418.793    7.088973E-21
         1420.357    7.086170E-21
         1421.923    7.083210E-21
         1423.491    7.080210E-21
         1425.059    7.077175E-21
          1426.63    7.074100E-21
         1428.203    7.070989E-21
         1429.777    7.067841E-21
         1431.354    7.064199E-21
         1432.932    7.060445E-21
          1434.51    7.056654E-21
         1436.092    7.052820E-21
         1437.676    7.048946E-21
          1439.26    7.045038E-21
         1440.847    7.040530E-21
         1442.435    7.035494E-21
         1444.024    7.030420E-21
         1445.617    7.025298E-21
          1447.21    7.020140E-21
         1448.805    7.014938E-21
         1450.402    7.009300E-21
         1452.001    7.002443E-21
         1453.602    6.995534E-21
         1455.205    6.988583E-21
         1456.808    6.981593E-21
         1458.414    6.974551E-21
         1460.022    6.967440E-21
         1461.631    6.958372E-21
         1463.243    6.949256E-21
         1464.856    6.940091E-21
          1466.47    6.930882E-21
         1468.086    6.921617E-21
         1469.706    6.912300E-21
         1471.325    6.900904E-21
         1472.947    6.888995E-21
         1474.571    6.877034E-21
         1476.196    6.865024E-21
         1477.824    6.852947E-21
         1479.453    6.840827E-21
         1481.083    6.826742E-21
         1482.716    6.811623E-21
          1484.35    6.796448E-21
         1485.987    6.781215E-21
         1487.625    6.771070E-21
         1489.264    6.769152E-21
         1490.906    6.765249E-21
         1492.549    6.759695E-21
         1494.195    6.753978E-21
         1495.842    6.748097E-21
         1497.491    6.742054E-21
         1499.142    6.735846E-21
         1500.794    6.725234E-21
         1502.449    6.709819E-21
         1504.105    6.694212E-21
         1505.763    6.678392E-21
         1507.423    6.662365E-21
         1509.084    6.646141E-21
         1510.748    6.628525E-21
         1512.414    6.609274E-21
          1514.08    6.589818E-21
         1515.749    6.570140E-21
         1517.419    6.550257E-21
         1519.093    6.530141E-21
         1520.768    6.509109E-21
         1522.444    6.487020E-21
         1524.122    6.464723E-21
         1525.802    6.442202E-21
         1527.484    6.419466E-21
         1529.168    6.396513E-21
         1530.854    6.372994E-21
          1532.54    6.348929E-21
          1534.23    6.324638E-21
         1535.921    6.300133E-21
         1537.615    6.275403E-21
          1539.31    6.250484E-21
         1541.006    6.225515E-21
         1542.705    6.200452E-21
         1544.405    6.175193E-21
         1546.109    6.139777E-21
         1547.812    6.099037E-21
         1549.518    6.058280E-21
         1551.227    6.018328E-21
         1552.936    5.978716E-21
         1554.648    5.939088E-21
         1556.363    5.899442E-21
         1558.078    5.859838E-21
         1559.795    5.820222E-21
         1561.515    5.782360E-21
         1563.235    5.744759E-21
         1564.958    5.707141E-21
         1566.685    5.669506E-21
         1568.411    5.631909E-21
          1570.14    5.594511E-21
         1571.871    5.559543E-21
         1573.603    5.524593E-21
         1575.338    5.489623E-21
         1577.075    5.454633E-21
         1578.813    5.419676E-21
         1580.553    5.385798E-21
         1582.295    5.354285E-21
         1584.039    5.322748E-21
         1585.785    5.291205E-21
         1587.534    5.259656E-21
         1589.284    5.228101E-21
         1591.036    5.198913E-21
          1592.79    5.171358E-21
         1594.545    5.143805E-21
         1596.303    5.116228E-21
         1598.062    5.088638E-21
         1599.824    5.061039E-21
         1601.588    5.037533E-21
         1603.353    5.014476E-21
          1605.12    4.991394E-21
          1606.89    4.968295E-21
         1608.661    4.945180E-21
         1610.434    4.923220E-21
          1612.21    4.904847E-21
         1613.986    4.886466E-21
         1615.765    4.868057E-21
         1617.548    4.849617E-21
          1619.33    4.831178E-21
         1621.115    4.815763E-21
         1622.902    4.802162E-21
          1624.69    4.788547E-21
         1626.482    4.774898E-21
         1628.275    4.761242E-21
         1630.069    4.747753E-21
         1631.867    4.739027E-21
         1633.665    4.730289E-21
         1635.466    4.721523E-21
         1637.269    4.712742E-21
         1639.074    4.703943E-21
          1640.88    4.697641E-21
         1642.689    4.693968E-21
           1644.5    4.690282E-21
         1646.313    4.686584E-21
         1648.128    4.683151E-21
         1649.944    4.683384E-21
         1651.763    4.688726E-21
         1653.585    4.694232E-21
         1655.407    4.699730E-21
         1657.232    4.705229E-21
         1659.058    4.710722E-21
         1660.888    4.718595E-21
         1662.719    4.729000E-21
         1664.552    4.739426E-21
         1666.386    4.749868E-21
         1668.223    4.760334E-21
         1670.062    4.770968E-21
         1671.903    4.785863E-21
         1673.746    4.800801E-21
          1675.59    4.815776E-21
         1677.437    4.830805E-21
         1679.287    4.845879E-21
         1681.139    4.863391E-21
         1682.991    4.882444E-21
         1684.847    4.901577E-21
         1686.704    4.920780E-21
         1688.563    4.940043E-21
         1690.425    4.960165E-21
         1692.287    4.982944E-21
         1694.153    5.005830E-21
         1696.021    5.028811E-21
          1697.89    5.051875E-21
         1699.762    5.075057E-21
         1701.636    5.100874E-21
         1703.512    5.127182E-21
         1705.389    5.153592E-21
         1707.269    5.180136E-21
         1709.151    5.206799E-21
         1711.035    5.234983E-21
         1712.922    5.264456E-21
         1714.809    5.294057E-21
         1716.699    5.323810E-21
         1718.592    5.353708E-21
         1720.485    5.384257E-21
         1722.383    5.416517E-21
         1724.281    5.448900E-21
         1726.182    5.481463E-21
         1728.086    5.514205E-21
          1729.99    5.547079E-21
         1731.897    5.581844E-21
         1733.806    5.616798E-21
         1735.718    5.651932E-21
          1737.63    5.687227E-21
         1739.546    5.722720E-21
         1741.463    5.759406E-21
         1743.383    5.796599E-21
         1745.305    5.833984E-21
         1747.228    5.871549E-21
         1749.154    5.909330E-21
         1751.084     1.866309E-6
         1753.013     5.214550E-6
         1754.946     8.600488E-6
          1756.88     1.202286E-5
         1758.817     1.548168E-5
         1760.756     1.897833E-5
         1762.697     2.251396E-5
         1764.639     2.608598E-5
         1766.585     2.969802E-5
         1768.532     3.334873E-5
         1770.482     3.703949E-5
         1772.434     4.077319E-5
         1774.387     4.454694E-5
         1776.343     4.835955E-5
         1778.301     5.221457E-5
         1780.262     5.611339E-5
         1782.224     6.005535E-5
         1784.189     6.404161E-5
         1786.156     6.807051E-5
         1788.124     7.214025E-5
         1790.096     7.625739E-5
         1792.068     8.042305E-5
         1794.044     8.463537E-5
         1796.022     8.889256E-5
         1798.001     9.319280E-5
         1799.984     9.754270E-5
         1801.968     1.019459E-4
         1803.954     1.063959E-4
         1805.942     1.108911E-4
         1807.933     1.154356E-4
         1809.926     1.200277E-4
         1811.922     1.246812E-4
         1813.919     1.293840E-4
         1815.918     1.341339E-4
          1817.92     1.389362E-4
         1819.925     1.437906E-4
          1821.93     1.487055E-4
         1823.938     1.536745E-4
         1825.948     1.586933E-4
         1827.962     1.637693E-4
         1829.976     1.688928E-4
         1831.995     1.740919E-4
         1834.013     1.793400E-4
         1836.035     1.846454E-4
         1838.059     1.900056E-4
         1840.084     1.954190E-4
         1842.113     2.009089E-4
         1844.144     2.064556E-4
         1846.177     2.120593E-4
         1848.212     2.177208E-4
         1850.248     2.291513E-4
         1852.288     2.683479E-4
          1854.33     2.326948E-4
         1856.375     2.465333E-4
         1858.421     2.684486E-4
         1860.469     2.786309E-4
          1862.52     2.886247E-4
         1864.573     2.867438E-4
         1866.628     2.967205E-4
         1868.686     2.926994E-4
         1870.746     3.078426E-4
         1872.808     3.344411E-4
         1874.872     3.450264E-4
         1876.939     3.630277E-4
         1879.008     3.866746E-4
         1881.079     3.965661E-4
         1883.153     4.097971E-4
         1885.229     4.267507E-4
         1887.307     4.292671E-4
         1889.387     4.410009E-4
         1891.471     4.580424E-4
         1893.555     4.911625E-4
         1895.643     5.092283E-4
         1897.732     5.273868E-4
         1899.823     5.498247E-4
         1901.919     5.610183E-4
         1904.014     5.726452E-4
         1906.113     6.005261E-4
         1908.215     6.191014E-4
         1910.317     6.464935E-4
         1912.424     6.620979E-4
         1914.532     6.824338E-4
         1916.643     7.039590E-4
         1918.755     7.285286E-4
          1920.87     7.541291E-4
         1922.988     7.714994E-4
         1925.107     7.951776E-4
          1927.23     8.242275E-4
         1929.354     8.543502E-4
         1931.481     8.766836E-4
          1933.61     8.943221E-4
          1935.74     9.337722E-4
         1937.875     9.574370E-4
         1940.011     9.930012E-4
         1942.149     0.001018946
          1944.29     0.001039017
         1946.434     0.001061573
          1948.58     0.001089438
         1950.728     0.001126937
         1952.878     0.001158884
          1955.03     0.001182662
         1957.185     0.001202494
         1959.343     0.001237115
         1961.503      0.00126969
         1963.665      0.00129609
         1965.829     0.001331426
         1967.996     0.001370678
         1970.167       0.0013982
         1972.339     0.001416905
         1974.512     0.001453876
         1976.689     0.001489215
         1978.868     0.001510639
         1981.049     0.001543582
         1983.233     0.001564004
         1985.418     0.001597651
         1987.607     0.001627148
         1989.798     0.001652637
         1991.992     0.001687665
         1994.188     0.001720063
         1996.386     0.001734316
         1998.586     0.001770427
         2000.789     0.001788086
         2002.996     0.001819648
         2005.203     0.001851646
         2007.414     0.001872285
         2009.627     0.001899839
         2011.841     0.001935432
          2014.06     0.001959818
         2016.279     0.001971785
         2018.502     0.001997467
         2020.727     0.002020605
         2022.955     0.002044133
         2025.185     0.002073532
         2027.417     0.002102404
         2029.652     0.002118652
         2031.889     0.002145285
         2034.129      0.00215711
         2036.371     0.002184736
         2038.616     0.002203846
         2040.864     0.002219252
         2043.112     0.002245309
         2045.365     0.002259105
         2047.621     0.002279669
         2049.877     0.002308534
         2052.137     0.002317172
         2054.399     0.002339688
         2056.664     0.002363972
         2058.931     0.002381317
         2061.201     0.002391085
         2063.472     0.002403097
         2065.747     0.002425831
         2068.024     0.002439366
         2070.304     0.002448042
         2072.586      0.00246058
         2074.871     0.002480687
         2077.157     0.002490686
         2079.447      0.00250186
          2081.74     0.002519738
         2084.034     0.002534978
         2086.332     0.002544448
         2088.632     0.002556518
         2090.933     0.002572079
          2093.24      0.00257582
         2095.546     0.002588148
         2097.856     0.002605009
         2100.169     0.002611049
         2102.483     0.002625695
         2104.802     0.002637422
         2107.121      0.00264685
         2109.444     0.002651547
         2111.769     0.002668582
         2114.097     0.002666109
         2116.428     0.002685559
          2118.76     0.002689512
         2121.097      0.00269838
         2123.434     0.002706811
         2125.775     0.002713955
         2128.118     0.002721984
         2130.463     0.002729351
         2132.813     0.002731941
         2135.163     0.002740349
         2137.518     0.002739005
         2139.875     0.002748975
         2142.231     0.002750884
         2144.594     0.002759283
         2146.958     0.002756111
         2149.325     0.002761434
         2151.693     0.002771442
         2154.065     0.002778594
          2156.44     0.002781966
         2158.817     0.002781441
         2161.197     0.002781883
         2163.578     0.002778714
         2165.964     0.002780085
         2168.353     0.002779149
         2170.743     0.002774259
         2173.135     0.002785143
         2175.529     0.002786942
         2177.929     0.002780704
         2180.329     0.002777436
         2182.733     0.002778394
         2185.138      0.00277142
         2187.547     0.002773616
         2189.959     0.002765676
         2192.372     0.002761623
         2194.789     0.002758546
         2197.208     0.002752265
         2199.632     0.002742847
         2202.056     0.002753289
         2204.482     0.002766561
         2206.912     0.002774945
         2209.345     0.002787421
         2211.782     0.002796527
         2214.219     0.002803648
          2216.66     0.002815214
         2219.104     0.002825868
         2221.549     0.002833637
         2223.998     0.002837877
         2226.449     0.002845792
         2228.904     0.002855489
         2231.361     0.002862217
          2233.82      0.00286156
         2236.284     0.002864322
         2238.748     0.002864666
         2241.217     0.002867483
         2243.687     0.002872103
         2246.159     0.002868619
         2248.636     0.002870114
         2251.114     0.002869001
         2253.597     0.002866307
          2256.08     0.002863164
         2258.567     0.002859919
         2261.057     0.002854304
         2263.548     0.002848152
         2266.045      0.00283515
         2268.542     0.002828948
         2271.042     0.002829126
         2273.546     0.002820052
         2276.051     0.002814812
         2278.562     0.002795456
         2281.072     0.002791162
         2283.588     0.002774718
         2286.104     0.002769625
         2288.623     0.002752296
         2291.147     0.002733608
         2293.672     0.002726203
         2296.202     0.002705334
         2298.732     0.002688451
         2301.266     0.002673682
         2303.803       0.0026503
         2306.342     0.002634281
         2308.885     0.002619744
         2311.431     0.002607837
         2313.979     0.002571161
          2316.53     0.002558786
         2319.082     0.002537147
         2321.639     0.002506886
         2324.198     0.002480462
          2326.76     0.002463005
         2329.325     0.002441153
         2331.892     0.002408284
         2334.463     0.002384253
         2337.038     0.002355072
         2339.613     0.002329543
         2342.193     0.002300406
         2344.774     0.002269766
         2347.357       0.0022403
         2349.947     0.002206527
         2352.536     0.002174677
         2355.131     0.002144465
         2357.726     0.002114367
         2360.326     0.002084092
         2362.927     0.002047794
         2365.531     0.002012826
          2368.14     0.001980161
         2370.749     0.001948827
         2373.364     0.001916247
         2375.979     0.001878926
         2378.598     0.001843871
          2381.22     0.001809877
         2383.844     0.001773961
         2386.473     0.001738742
         2389.103     0.001704761
         2391.737     0.001670365
         2394.373     0.001633765
         2397.012     0.001598328
         2399.656     0.001565709
           2402.3     0.001535348
         2404.949     0.001498219
           2407.6     0.001460861
         2410.252      0.00142841
          2412.91     0.001396372
          2415.57     0.001362496
         2418.233     0.001329646
         2420.898     0.001295102
         2423.567      0.00126563
         2426.238     0.001238528
         2428.913     0.001206185
         2431.591     0.001176115
         2434.271     0.001145251
         2436.954     0.001114381
         2439.641     0.001087715
         2442.331     0.001055774
         2445.022     0.001030194
         2447.718     0.001002746
         2450.416     9.754522E-4
         2453.117     9.486444E-4
         2455.822     9.217734E-4
         2458.528     8.997619E-4
         2461.239     8.740905E-4
         2463.951     8.494897E-4
         2466.669     8.310995E-4
         2469.387     7.993143E-4
         2472.108     7.772182E-4
         2474.834     7.581063E-4
         2477.561     7.388015E-4
         2480.294     7.192046E-4
         2483.027     6.989282E-4
         2485.764     6.784220E-4
         2488.504     6.576941E-4
         2491.246     6.391715E-4
         2493.994     6.233468E-4
         2496.742     6.073675E-4
         2499.494     5.912057E-4
          2502.25     5.745380E-4
         2505.007     5.576273E-4
          2507.77     5.405201E-4
         2510.533     5.241121E-4
         2513.302     5.111429E-4
         2516.072     4.980470E-4
         2518.844     4.848113E-4
         2521.622     4.713315E-4
         2524.401     4.576592E-4
         2527.185     4.438298E-4
         2529.969     4.298685E-4
         2532.759     4.191786E-4
         2535.551     4.084124E-4
         2538.344     3.971037E-4
         2541.144     3.851980E-4
         2543.946     3.731705E-4
          2546.75     3.610771E-4
         2549.558     3.489170E-4
         2552.367     3.392763E-4
          2555.18     3.300601E-4
         2557.997     3.207919E-4
         2560.817     3.114199E-4
         2563.639     3.018732E-4
         2566.465     2.922686E-4
         2569.294     2.826112E-4
         2572.128     2.746048E-4
         2574.962     2.671283E-4
           2577.8     2.596104E-4
         2580.643     2.520523E-4
         2583.486     2.444925E-4
         2586.336     2.368824E-4
         2589.186     2.292386E-4
         2592.039     2.229126E-4
         2594.897     2.170904E-4
         2597.757     2.112408E-4
         2600.622     2.053254E-4
         2603.487     1.992859E-4
         2606.357     1.932089E-4
         2609.231     1.870976E-4
         2612.106     1.820698E-4
         2614.985     1.774190E-4
          2617.87     1.727386E-4
         2620.754     1.680095E-4
         2623.643     1.631756E-4
         2626.536     1.583137E-4
         2629.431     1.534238E-4
         2632.328     1.494534E-4
         2635.232     1.456871E-4
         2638.135     1.419023E-4
         2641.045     1.381071E-4
         2643.955     1.343222E-4
          2646.87     1.305128E-4
         2649.788     1.266813E-4
         2652.708     1.236384E-4
         2655.633     1.206376E-4
          2658.56     1.176218E-4
          2661.49     1.145650E-4
         2664.424     1.114687E-4
          2667.36     1.083556E-4
         2670.302     1.052969E-4
         2673.244     1.028876E-4
         2676.193     1.004612E-4
         2679.142     9.802284E-5
         2682.094     9.551003E-5
         2685.052     9.295518E-5
         2688.012     9.038666E-5
         2690.975     8.801134E-5
          2693.94     8.604900E-5
          2696.91     8.407398E-5
         2699.883     8.208711E-5
         2702.858     8.018031E-5
         2705.839     7.825613E-5
         2708.822     7.631365E-5
         2711.807     7.465289E-5
         2714.796     7.317105E-5
         2717.789     7.167392E-5
         2720.785     7.013739E-5
         2723.785     6.851678E-5
         2726.788     6.687995E-5
         2729.792     6.522765E-5
         2732.802     6.396561E-5
         2735.814     6.272111E-5
          2738.83     6.146398E-5
         2741.849     6.016152E-5
         2744.872     5.882523E-5
         2747.898     5.747566E-5
         2750.926     5.616808E-5
         2753.958     5.497739E-5
         2756.994     5.378318E-5
         2760.034     5.258484E-5
         2763.076     5.133834E-5
         2766.121     5.008878E-5
         2769.172     4.883417E-5
         2772.223     4.774701E-5
         2775.281     4.671907E-5
         2778.339     4.568909E-5
           2781.4     4.466061E-5
         2784.468     4.363370E-5
         2787.536     4.260477E-5
          2790.61     4.161410E-5
         2793.685     4.079238E-5
         2796.765     3.996789E-5
         2799.848     3.914109E-5
         2802.933     3.826828E-5
         2806.025     3.738991E-5
         2809.117     3.650994E-5
         2812.213     3.575689E-5
         2815.314     3.505359E-5
         2818.417     3.434839E-5
         2821.524     3.361817E-5
         2824.633     3.286243E-5
         2827.749     3.210389E-5
         2830.865     3.138235E-5
         2833.985     3.075841E-5
         2837.109     3.013283E-5
         2840.236     2.950838E-5
         2843.368     2.891303E-5
         2846.501     2.831669E-5
         2849.641     2.771820E-5
         2852.781     2.720127E-5
         2855.924     2.669367E-5
         2859.074     2.618426E-5
         2862.226     2.564847E-5
         2865.381     2.510077E-5
          2868.54     2.455166E-5
         2871.701     2.406466E-5
         2874.866     2.363058E-5
         2878.036     2.319540E-5
         2881.208     2.275006E-5
         2884.385     2.228872E-5
         2887.563     2.182647E-5
         2890.748     2.138775E-5
         2893.935     2.103020E-5
         2897.123     2.067196E-5
         2900.317     2.030340E-5
         2903.515     1.985072E-5
         2906.715     1.939889E-5
          2909.92     1.894785E-5
         2913.126     1.860252E-5
         2916.338     1.826030E-5
         2919.552     1.791873E-5
         2922.773     1.753615E-5
         2925.993     1.714799E-5
         2929.217     1.676057E-5
         2932.448     1.642760E-5
         2935.679     1.611284E-5
         2938.916     1.579854E-5
         2942.155     1.547694E-5
         2945.399     1.515200E-5
         2948.646     1.482769E-5
         2951.895     1.453863E-5
         2955.151     1.427449E-5
         2958.407     1.401115E-5
         2961.668     1.374216E-5
         2964.933     1.346797E-5
           2968.2     1.319447E-5
         2971.474     1.294256E-5
         2974.748     1.271734E-5
         2978.027     1.249249E-5
          2981.31     1.226333E-5
         2984.595     1.202757E-5
         2987.887     1.179212E-5
         2991.179     1.156163E-5
         2994.477     1.133908E-5
         2997.778     1.111705E-5
         3001.083     1.089933E-5
         3004.391     1.068993E-5
         3007.702     1.048113E-5
         3011.019     1.028342E-5
         3014.337     1.011070E-5
         3017.658     9.938391E-6
         3020.987     9.762796E-6
         3024.317     9.579409E-6
         3027.651     9.396462E-6
         3030.987     9.224357E-6
         3034.328     9.077146E-6
         3037.673     8.930283E-6
         3041.022     8.776655E-6
         3044.375     8.607252E-6
         3047.731     8.438287E-6
         3051.089     8.277318E-6
         3054.454     8.132210E-6
          3057.82     7.987603E-6
         3061.191     7.847386E-6
         3064.565     7.714983E-6
         3067.944     7.582917E-6
         3071.326     7.446677E-6
          3074.71     7.303860E-6
           3078.1     7.161363E-6
         3081.495     7.039373E-6
          3084.89     6.943452E-6
         3088.292     6.847679E-6
         3091.696     6.735126E-6
         3095.102     6.605680E-6
         3098.516     6.476454E-6
          3101.93     6.381915E-6
         3105.351     6.313410E-6
         3108.773     6.244612E-6
           3112.2     6.153204E-6
         3115.631     6.048893E-6
         3119.064     5.944096E-6
         3122.504     5.864094E-6
         3125.945     5.793281E-6
         3129.391     5.722055E-6
         3132.841     5.650419E-6
         3136.294     5.578397E-6
         3139.752     5.505997E-6
         3143.211     5.444308E-6
         3146.678     5.383091E-6
         3150.145     5.322111E-6
         3153.618     5.272172E-6
         3157.095     5.221968E-6
         3160.573     5.167565E-6
         3164.059     5.092669E-6
         3167.546     5.017463E-6
         3171.039     4.945389E-6
         3174.533     4.881519E-6
         3178.031     4.817320E-6
         3181.536     4.758117E-6
         3185.044     4.705558E-6
         3188.555     4.652725E-6
         3192.068     4.599615E-6
         3195.587     4.546180E-6
          3199.11     4.492466E-6
         3202.637     4.438470E-6
         3206.167     4.384196E-6
           3209.7     4.329664E-6
         3213.239     4.274871E-6
         3216.781     4.219799E-6
         3220.327     4.166767E-6
         3223.877     4.136436E-6
         3227.431     4.105932E-6
         3230.989     4.068176E-6
         3234.549     4.011782E-6
         3238.115     3.955065E-6
         3241.685     3.910228E-6
         3245.259     3.878805E-6
         3248.836     3.847210E-6
         3252.418     3.797891E-6
         3256.003     3.739842E-6
         3259.591     3.681521E-6
         3263.186     3.634460E-6
         3266.781     3.588696E-6
         3270.383     3.544072E-6
         3273.988     3.511068E-6
         3277.596     3.477901E-6
         3281.209     3.444528E-6
         3284.826     3.410953E-6
         3288.449     3.377181E-6
         3292.073     3.335621E-6
           3295.7     3.288104E-6
         3299.335     3.240291E-6
          3302.97     3.203332E-6
         3306.614     3.168623E-6
         3310.257     3.134725E-6
         3313.906     3.113325E-6
         3317.559     3.091806E-6
         3321.215     3.065614E-6
         3324.878     3.030054E-6
         3328.542     2.994343E-6
         3332.211     2.958446E-6
         3335.885     2.922375E-6
          3339.56     2.886130E-6
         3343.244     2.861980E-6
         3346.927     2.839396E-6
         3350.619     2.811944E-6
         3354.311     2.760899E-6
         3358.007     2.709585E-6
          3361.71     2.677637E-6
         3365.415     2.668527E-6
         3369.126     2.659348E-6
         3372.839     2.628251E-6
         3376.557     2.590217E-6
         3380.279     2.554145E-6
         3384.004     2.544634E-6
         3387.736     2.535052E-6
         3391.469     2.508268E-6
         3395.208     2.454808E-6
         3398.953     2.401037E-6
         3402.698     2.368182E-6
         3406.449     2.343367E-6
         3410.204     2.318414E-6
         3413.964     2.293331E-6
         3417.727     2.268110E-6
         3421.493     2.242775E-6
         3425.265     2.217309E-6
         3429.043     2.191690E-6
         3432.821     2.165978E-6
         3436.606     2.140118E-6
         3440.394     2.114114E-6
         3444.185     2.087989E-6
         3447.984     2.061692E-6
         3451.783     2.042456E-6
         3455.588     2.031249E-6
         3459.398     2.019972E-6
         3463.211     1.995649E-6
         3467.029     1.968747E-6
          3470.85     1.941714E-6
         3474.678     1.914531E-6
         3478.506     1.887222E-6
         3482.339     1.869334E-6
          3486.18     1.857462E-6
         3490.023     1.845523E-6
         3493.871     1.833520E-6
          3497.72     1.821449E-6
         3501.576     1.802804E-6
         3505.437     1.774633E-6
         3509.301     1.746300E-6
          3513.17     1.730996E-6
         3517.041     1.718524E-6
         3520.918     1.705969E-6
         3524.799     1.693344E-6
         3528.685     1.680640E-6
         3532.575     1.667890E-6
         3536.468     1.655085E-6
         3540.368     1.640633E-6
         3544.269     1.611176E-6
         3548.176     1.581535E-6
         3552.088     1.560594E-6
         3556.004     1.547303E-6
         3559.924     1.533929E-6
         3563.846     1.520505E-6
         3567.777     1.506985E-6
         3571.708     1.493396E-6
         3575.644     1.479727E-6
         3579.588     1.465959E-6
         3583.534     1.452136E-6
         3587.484     1.438230E-6
         3591.439     1.424239E-6
         3595.396     1.410172E-6
          3599.36     1.396010E-6
         3603.328     1.381778E-6
         3607.301     1.367462E-6
         3611.277     1.353054E-6
         3615.256     1.338556E-6
         3619.242     1.323962E-6
         3623.234     1.309300E-6
         3627.226     1.294570E-6
         3631.223     1.279743E-6
         3635.228     1.264802E-6
         3639.237     1.249770E-6
         3643.247     1.234662E-6
         3647.261     1.219462E-6
         3651.284     1.209914E-6
         3655.307     1.212628E-6
         3659.335     1.215349E-6
         3663.371     1.187663E-6
         3667.408     1.153827E-6
         3671.453     1.132927E-6
         3675.498     1.135476E-6
         3679.552     1.138033E-6
         3683.606     1.124141E-6
         3687.665     1.108114E-6
         3691.732     1.091973E-6
           3695.8     1.075751E-6
         3699.876     1.059414E-6
         3703.953     1.042994E-6
         3708.039     1.026459E-6
         3712.124     1.019687E-6
         3716.215     1.021991E-6
         3720.313     1.022844E-6
         3724.413     1.006029E-6
         3728.521     9.890950E-7
         3732.629     9.843984E-7
         3736.746     9.866293E-7
         3740.863     9.847992E-7
         3744.985     9.675763E-7
         3749.116     9.502323E-7
         3753.247     9.481939E-7
         3757.386     9.503459E-7
         3761.526     9.452276E-7
         3765.675     9.275583E-7
         3769.824     9.098015E-7
         3773.978     8.919490E-7
         3778.141     8.739709E-7
         3782.304     8.669938E-7
         3786.473     8.689522E-7
         3790.648     8.677795E-7
         3794.824     8.494740E-7
          3799.01     8.310411E-7
         3803.196     8.280936E-7
         3807.389     8.299652E-7
         3811.586     8.240769E-7
          3815.79     8.053136E-7
         3819.994     7.864563E-7
         3824.203     7.881847E-7
         3828.419     7.899457E-7
          3832.64     7.786492E-7
         3836.865     7.594349E-7
         3841.095     7.455499E-7
         3845.331     7.472157E-7
         3849.568     7.488837E-7
          3853.81     7.505465E-7
         3858.058     7.522126E-7
         3862.312     7.422595E-7
         3866.572     7.224402E-7
         3870.832     7.067261E-7
         3875.099     7.082842E-7
         3879.369     7.098449E-7
         3883.646     6.928760E-7
         3887.927     6.725916E-7
         3892.213     6.634843E-7
         3896.504     6.649361E-7
           3900.8     6.663896E-7
           3905.1     6.678380E-7
         3909.403     6.692890E-7
         3913.712     6.515808E-7
         3918.027     6.306786E-7
         3922.346     6.218100E-7
          3926.67     6.231420E-7
         3930.999     6.244766E-7
         3935.333     6.258125E-7
         3939.669     6.271509E-7
         3944.012     6.074649E-7
          3948.36     5.859274E-7
         3952.712     5.785348E-7
          3957.07     5.797535E-7
         3961.432     5.809688E-7
         3965.799     5.821748E-7
         3970.169     5.824856E-7
         3974.546     5.604328E-7
         3978.927     5.382601E-7
         3983.314     5.336444E-7
         3987.705     5.347405E-7
         3992.101     5.358309E-7
           3996.5     5.369145E-7
         4000.906     5.377582E-7
         4005.316     5.376638E-7
         4009.732     5.375687E-7
         4014.152     5.151476E-7
         4018.577     4.912662E-7
         4023.008     4.835192E-7
          4027.44     4.834131E-7
          4031.88     4.833028E-7
         4036.325     4.831868E-7
         4040.775     4.830686E-7
         4045.229     4.829424E-7
         4049.689     4.828158E-7
         4054.153     4.604067E-7
          4058.62     4.363257E-7
         4063.094     4.287999E-7
         4067.574     4.286696E-7
         4072.058     4.285351E-7
         4076.547     4.283957E-7
         4081.041     4.282539E-7
         4085.538     4.281060E-7
         4090.042     4.279574E-7
         4094.548     4.278069E-7
         4099.064     4.276556E-7
         4103.583     4.083467E-7
         4108.107     3.840232E-7
         4112.636     3.737648E-7
         4117.165     3.736175E-7
         4121.706     3.734651E-7
          4126.25     3.733051E-7
         4130.799     3.731443E-7
         4135.353     3.729817E-7
         4139.911     3.728188E-7
         4144.473     3.726543E-7
          4149.04     3.724893E-7
         4153.616     3.530830E-7
         4158.195     3.285707E-7
         4162.779     3.188206E-7
         4167.366     3.186665E-7
         4171.962     3.185095E-7
         4176.559     3.183489E-7
         4181.163     3.181875E-7
         4185.772     3.180253E-7
         4190.385     3.178622E-7
         4195.006     3.176937E-7
         4199.629     3.175250E-7
         4204.261     3.178430E-7
         4208.894     3.182039E-7
         4213.531     3.185644E-7
         4218.178     3.189259E-7
         4222.826     3.042450E-7
         4227.484     2.797718E-7
         4232.142     2.666649E-7
          4236.81     2.669628E-7
         4241.478     2.672594E-7
         4246.151     2.675533E-7
         4250.835     2.678480E-7
         4255.519     2.681423E-7
         4260.212     2.684371E-7
         4264.907     2.687276E-7
         4269.606     2.690186E-7
         4274.315     2.693099E-7
         4279.025     2.696015E-7
         4283.744     2.698899E-7
         4288.464     2.701776E-7
         4293.194     2.704655E-7
         4297.925     2.707534E-7
         4302.661     2.566164E-7
         4307.406     2.311341E-7
         4312.152     2.172868E-7
         4316.909     2.175148E-7
         4321.665     2.177427E-7
         4326.432     2.179709E-7
         4331.199     2.181991E-7
         4335.971     2.184273E-7
         4340.753     2.186554E-7
         4345.537     2.188807E-7
          4350.33     2.191062E-7
         4355.123     2.193286E-7
         4359.926     2.195516E-7
          4364.73     2.197773E-7
          4369.54     2.200033E-7
         4374.359     2.202268E-7
         4379.179     2.204500E-7
         4384.009     2.206735E-7
          4388.84     2.208971E-7
          4393.68     2.211183E-7
         4398.521     2.213387E-7
         4403.368     2.029052E-7
         4408.225     1.761806E-7
         4413.082     1.665059E-7
          4417.95     1.666719E-7
         4422.817     1.668378E-7
         4427.696     1.670042E-7
         4432.574     1.671690E-7
         4437.458     1.673328E-7
         4442.353     1.674981E-7
         4447.248     1.676646E-7
         4452.153     1.678302E-7
         4457.059     1.679945E-7
          4461.97     1.681588E-7
         4466.891     1.683235E-7
         4471.813     1.684881E-7
         4476.745     1.686531E-7
         4481.678     1.688181E-7
         4486.618     1.689832E-7
         4491.564     1.691485E-7
         4496.514     1.693138E-7
         4501.473     1.696803E-7
         4506.433     1.705223E-7
         4511.401     1.713652E-7
         4516.375     1.722075E-7
         4521.355     1.730520E-7
         4526.337     1.738984E-7
         4531.325     1.747454E-7
          4536.32     1.755921E-7
         4541.321     1.764400E-7
         4546.328     1.772888E-7
         4551.339     1.701865E-7
         4556.357     1.410650E-7
          4561.38     1.198983E-7
         4566.406     1.204670E-7
          4571.44     1.210367E-7
         4576.479     1.216071E-7
         4581.527     1.221785E-7
         4586.575     1.227502E-7
         4591.632     1.233229E-7
         4596.691     1.238960E-7
         4601.758     1.244702E-7
         4606.832     1.250452E-7
          4611.91     1.256209E-7
         4616.994     1.261974E-7
         4622.084     1.267738E-7
          4627.18     1.273499E-7
         4632.278     1.279273E-7
         4637.385     1.285068E-7
         4642.497     1.290871E-7
         4647.615     1.296682E-7
         4652.738     1.302500E-7
         4657.868     1.308325E-7
         4663.002     1.314146E-7
         4668.141     1.319964E-7
         4673.287     1.325806E-7
         4678.438     1.331662E-7
         4683.596     1.337527E-7
         4688.759     1.343398E-7
         4693.928     1.349262E-7
           4699.1     1.355125E-7
         4704.281     1.361016E-7
         4709.467     1.366919E-7
         4714.658     1.372810E-7
         4719.856     1.378708E-7
         4725.059     1.384633E-7
         4730.268     1.390566E-7
          4735.48     1.396483E-7
         4740.701     1.402414E-7
         4745.927     1.408371E-7
         4751.159     1.414331E-7
         4756.396     1.420282E-7
          4761.64     1.426246E-7
         4766.889     1.432235E-7
         4772.142     1.438228E-7
         4777.402     1.444234E-7
         4782.669     1.450235E-7
         4787.941     1.456232E-7
          4793.22     1.462252E-7
         4798.504     1.468288E-7
         4803.791     1.474328E-7
         4809.087     1.480381E-7
         4814.389     1.160251E-7
         4819.696     7.689331E-8
         4825.009     7.492702E-8
         4830.328     7.523121E-8
         4835.653     7.553579E-8
         4840.981     7.584062E-8
         4846.318     7.614607E-8
         4851.661     7.645149E-8
         4857.009     7.675641E-8
         4862.364     7.706231E-8
         4867.724     7.736939E-8
          4873.09     7.767678E-8
         4878.457     7.798426E-8
         4883.838     7.829264E-8
         4889.222     7.860129E-8
         4894.612     7.891030E-8
         4900.008     7.921975E-8
         4905.409     7.953085E-8
         4910.814     7.984205E-8
         4916.228     8.015271E-8
         4921.648     8.046380E-8
         4927.074     8.077527E-8
         4932.505     8.108714E-8
          4937.94     8.139923E-8
         4943.386     8.171293E-8
         4948.833     8.202728E-8
         4954.289     8.234216E-8
          4959.75     8.265746E-8
         4965.216     8.297170E-8
         4970.692     8.328678E-8
         4976.169     8.360320E-8
         4981.658     8.392038E-8
         4987.146     8.423761E-8
         4992.642     8.455526E-8
         4998.148     8.487366E-8
         5003.656     8.523565E-8
         5009.174     8.562054E-8
         5014.694     8.600563E-8
         5020.219     8.639130E-8
         5025.756     8.677923E-8
         5031.294     8.716700E-8
         5036.843     8.755460E-8
         5042.394     8.794296E-8
         5047.955     8.833304E-8
         5053.517     8.872233E-8
         5059.085     8.911158E-8
         5064.665     8.950302E-8
         5070.246     8.989489E-8
         5075.838     9.028766E-8
         5081.431     9.068017E-8
         5087.036     9.107248E-8
         5092.641     9.146564E-8
         5098.252     9.186017E-8
         5103.875     9.225563E-8
         5109.499     9.265125E-8
         5115.134     9.304782E-8
         5120.771     9.344458E-8
         5126.418     9.384219E-8
         5132.067     9.423943E-8
         5137.722     9.463622E-8
         5143.389     9.503486E-8
         5149.056     9.543432E-8
         5154.735     9.583477E-8
         5160.415     9.623534E-8
         5166.107     9.663682E-8
         5171.799     9.703847E-8
         5177.498     9.744072E-8
         5183.208     9.784296E-8
         5188.919     9.824462E-8
         5194.643     9.864853E-8
         5200.366     9.905278E-8
         5206.102     9.945652E-8
         5211.838     9.986092E-8
         5217.581     1.002669E-7
         5223.336     1.006730E-7
         5229.091     1.010785E-7
         5234.859     1.014850E-7
         5240.627     1.018916E-7
         5246.407     1.022990E-7
         5252.188     1.027073E-7
         5257.975     1.031173E-7
         5263.774     1.035259E-7
         5269.574     1.039334E-7
         5275.383     1.043432E-7
         5281.199     1.047539E-7
         5287.018     1.051648E-7
          5292.85     1.055758E-7
         5298.682     1.059860E-7
         5304.523     1.063969E-7
         5310.371     1.068085E-7
         5316.228     1.072226E-7
         5322.085     1.076355E-7
          5327.95     1.080465E-7
         5333.826     1.084596E-7
         5339.703     1.088735E-7
          5345.59     1.092882E-7
         5351.483     1.097029E-7
         5357.385     1.101169E-7
         5363.289     1.105310E-7
         5369.198     1.109457E-7
         5375.117     5.437467E-8
         5381.042     1.165218E-8
         5386.978     7.828116E-8
         5392.914     7.979736E-8
         5398.858     1.290253E-8
         5404.807              0.
         5410.766              0.
          5416.73              0.
         5422.702              0.
          5428.68              0.
         5434.665              0.
         5440.656              0.
         5446.651              0.
         5452.655              0.
         5458.666              0.
         5464.684              0.
         5470.708              0.
         5476.739              0.
         5482.777              0.
         5488.818              0.
         5494.869              0.
         5500.926              0.
         5506.991              0.
         5513.062              0.
         5519.139              0.
         5525.221              0.
         5531.312              0.
          5537.41              0.
         5543.514              0.
         5549.625              0.
         5555.743              0.
         5561.868              0.
         5567.996              0.
         5574.134              0.
         5580.279              0.
         5586.431              0.
          5592.59              0.
         5598.755              0.
         5604.927              0.
         5611.103              0.
         5617.289              0.
         5623.481              0.
         5629.681              0.
         5635.887              0.
           5642.1              0.
         5648.316              0.
         5654.543              0.
         5660.777              0.
         5667.018              0.
         5673.265              0.
         5679.519              0.
          5685.78              0.
         5692.045              0.
          5698.32              0.
         5704.602              0.
         5710.891              0.
         5717.187              0.
         5723.489              0.
         5729.799              0.
         5736.112              0.
         5742.436              0.
         5748.766              0.
         5755.104              0.
         5761.448              0.
           5767.8              0.
         5774.155              0.
         5780.521              0.
         5786.893              0.
         5793.272              0.
         5799.659              0.
         5806.053              0.
         5812.453              0.
         5818.858              0.
         5825.272              0.
         5831.694              0.
         5838.123              0.
         5844.559              0.
         5851.002              0.
         5857.453              0.
         5863.907              0.
         5870.368              0.
         5876.843              0.
         5883.321              0.
         5889.807              0.
           5896.3              0.
           5902.8              0.
         5909.304              0.
         5915.819              0.
          5922.34              0.
         5928.869              0.
         5935.405              0.
         5941.945              0.
         5948.492              0.
         5955.053              0.
         5961.618              0.
          5968.19              0.
         5974.767              0.
         5981.356              0.
         5987.947              0.
         5994.548              0.
         6001.157              0.
         6007.769              0.
         6014.396              0.
         6021.022              0.
         6027.663              0.
         6034.308              0.
         6040.954              0.
         6047.617              0.
          6054.28              0.
         6060.958              0.
         6067.636              0.
         6074.329              0.
         6081.021              0.
         6087.722              0.
         6094.437              0.
         6101.152              0.
         6107.878              0.
         6114.611              0.
         6121.355              0.
           6128.1              0.
         6134.853              0.
         6141.616              0.
         6148.386              0.
         6155.167              0.
          6161.95              0.
         6168.746              0.
          6175.54              0.
         6182.348              0.
         6189.163              0.
         6195.986              0.
          6202.82              0.
         6209.655              0.
         6216.497              0.
          6223.35              0.
         6230.211              0.
         6237.083              0.
         6243.955              0.
         6250.838              0.
         6257.729              0.
         6264.624              0.
          6271.53              0.
         6278.444              0.
         6285.366              0.
         6292.294              0.
         6299.231              0.
         6306.176              0.
         6313.124              0.
         6320.084              0.
         6327.051              0.
         6334.026              0.
         6341.009              0.
         6347.999              0.
         6354.994              0.
            6362.              0.
         6369.013              0.
         6376.034              0.
         6383.063              0.
           6390.1              0.
         6397.145              0.
         6404.193              0.
         6411.253              0.
         6418.321              0.
         6425.397              0.
          6432.48              0.
         6439.571              0.
          6446.67              0.
         6453.774              0.
         6460.889              0.
         6468.011              0.
         6475.142              0.
          6482.28              0.
         6489.426              0.
         6496.576              0.
         6503.738              0.
         6510.908              0.
         6518.085              0.
         6525.271              0.
         6532.465              0.
         6539.666              0.
         6546.872              0.
         6554.089              0.
         6561.314              0.
         6568.548              0.
         6575.789              0.
         6583.038              0.
         6590.295              0.
         6597.557              0.
          6604.83              0.
         6612.111              0.
           6619.4              0.
         6626.698              0.
         6634.003              0.
         6641.316              0.
         6648.634              0.
         6655.964              0.
         6663.301              0.
         6670.647              0.
         6678.001              0.
         6685.363              0.
         6692.729              0.
         6700.107              0.
         6707.494              0.
         6714.888              0.
         6722.291              0.
         6729.701              0.
          6737.12              0.
         6744.543              0.
         6751.979              0.
         6759.422              0.
         6766.874              0.
         6774.333              0.
         6781.802              0.
         6789.278              0.
         6796.759              0.
         6804.251              0.
         6811.752              0.
         6819.262              0.
          6826.78              0.
         6834.306              0.
         6841.836              0.
         6849.378              0.
         6856.929              0.
         6864.488              0.
         6872.056              0.
         6879.632              0.
         6887.216              0.
         6894.805              0.
         6902.405              0.
         6910.015              0.
         6917.632              0.
         6925.258              0.
         6932.893              0.
         6940.536              0.
         6948.183              0.
         6955.839              0.
         6963.511              0.
         6971.188              0.
         6978.873              0.
         6986.566              0.
         6994.261     1.596106E-8
         7001.975     3.735312E-8
         7009.694     3.720066E-8
         7017.422     3.704772E-8
         7025.158     3.689562E-8
         7032.902     3.674445E-8
         7040.652     3.659416E-8
          7048.41     3.644341E-8
         7056.184     3.629355E-8
         7063.962     3.614428E-8
          7071.75     3.599533E-8
         7079.542     3.584670E-8
          7087.35     3.569828E-8
          7095.16     3.555085E-8
         7102.981     3.544890E-8
         7110.812     3.541967E-8
         7118.647     3.538993E-8
         7126.499     3.535984E-8
         7134.351     3.532976E-8
          7142.22     3.529928E-8
         7150.089     3.526790E-8
         7157.968     3.523683E-8
         7165.863     3.520536E-8
         7173.758     3.517393E-8
         7181.671     3.514225E-8
         7189.584     3.510942E-8
         7197.514     3.507706E-8
         7205.444     3.503015E-8
         7213.384     3.497650E-8
          7221.34     3.492269E-8
         7229.297     3.486930E-8
         7237.271     3.481482E-8
         7245.245     3.476061E-8
         7253.236     3.470630E-8
         7261.228     3.465168E-8
         7269.229     3.459685E-8
         7277.243     3.454246E-8
         7285.265     3.448732E-8
           7293.3     3.443194E-8
         7301.336     3.434659E-8
         7309.381     3.410999E-8
         7317.439     3.387511E-8
         7325.506     3.364059E-8
         7333.586     3.340695E-8
         7341.667     3.317492E-8
         7349.764     3.294349E-8
         7357.863     3.271325E-8
          7365.97     3.248455E-8
          7374.09     3.225641E-8
         7382.219     3.202898E-8
         7390.362     3.180285E-8
         7398.505     3.157796E-8
         7406.661     3.156463E-8
         7414.826     3.159756E-8
         7422.996     3.162960E-8
         7431.184     3.166140E-8
         7439.372     3.169311E-8
         7447.573     3.172319E-8
         7455.783     3.175295E-8
         7464.002     3.178214E-8
         7472.231     3.181051E-8
         7480.464     3.183800E-8
          7488.71     3.186472E-8
         7496.966     3.189136E-8
         7505.231     3.177803E-8
         7513.505     3.158425E-8
         7521.788     3.139109E-8
         7530.076     3.119861E-8
         7538.377     3.100667E-8
         7546.688     3.081531E-8
         7555.007     3.062457E-8
         7563.335     3.043439E-8
         7571.673     3.024476E-8
         7580.021     3.005582E-8
         7588.373     2.986762E-8
         7596.738     2.967993E-8
         7605.113     2.960880E-8
         7613.497     2.961117E-8
          7621.89     2.961280E-8
         7630.292     2.961376E-8
         7638.704     2.961396E-8
         7647.121     2.961341E-8
         7655.551     2.961220E-8
         7663.991     2.961027E-8
         7672.439     2.960761E-8
         7680.897     2.960425E-8
         7689.365     2.960012E-8
         7697.838     2.959537E-8
         7706.324     3.006128E-8
         7714.819     3.068374E-8
         7723.324     3.130086E-8
         7731.838     3.191259E-8
         7740.362     3.251902E-8
         7748.895     3.312009E-8
         7757.434     3.371560E-8
         7765.985     3.430605E-8
         7774.546     3.489117E-8
         7783.117     3.547102E-8
         7791.697     3.604555E-8
         7800.287     3.659926E-8
         7808.886     3.669883E-8
          7817.49     3.679652E-8
         7826.108     3.689263E-8
         7834.736     3.698705E-8
         7843.373     3.707974E-8
          7852.02     3.717074E-8
         7860.676     3.726002E-8
         7869.337     3.734760E-8
         7878.013     3.743346E-8
         7886.697     3.751772E-8
         7895.392     3.760030E-8
         7904.096     3.775650E-8
         7912.809     3.799486E-8
         7921.532     3.823028E-8
         7930.261     3.846268E-8
         7939.003     3.869230E-8
         7947.755     3.891909E-8
         7956.517     3.914300E-8
         7965.288     3.936405E-8
         7974.069     3.958224E-8
          7982.86     3.979756E-8
         7991.656     4.000995E-8
         8000.466     4.018931E-8
         8009.286     3.982470E-8
         8018.115     3.946185E-8
         8026.954     3.910074E-8
         8035.803     3.874132E-8
         8044.658     3.838373E-8
         8053.526     3.802767E-8
         8062.404     3.767333E-8
         8071.292     3.732069E-8
          8080.19     3.696975E-8
         8089.098     3.662048E-8
         8098.016     3.627297E-8
         8106.938     3.655477E-8
         8115.875     3.700894E-8
         8124.822     3.745453E-8
         8133.779     3.789161E-8
         8142.746     3.832021E-8
         8151.723     3.874030E-8
         8160.709     3.915193E-8
         8169.701     3.955487E-8
         8178.708     3.994955E-8
         8187.724     4.033582E-8
          8196.75     4.071369E-8
         8205.786     4.081642E-8
         8214.832     4.076550E-8
         8223.884     4.071183E-8
          8232.95     4.065539E-8
         8242.026     4.059624E-8
         8251.112     4.053439E-8
         8260.208     4.046976E-8
         8269.314     4.040244E-8
         8278.431     4.033242E-8
         8287.552     4.025975E-8
         8296.688     4.018432E-8
         8305.835     4.029233E-8
         8314.991     4.049990E-8
         8324.153     4.070051E-8
         8333.334     4.089445E-8
         8342.521     4.108152E-8
         8351.713     4.129763E-8
          8360.92     4.166617E-8
         8370.138     4.203064E-8
         8379.365     4.239100E-8
         8388.603     4.274721E-8
          8397.85     4.309916E-8
         8407.104     4.326166E-8
         8416.371     4.336512E-8
         8425.649     4.346565E-8
         8434.934     4.356319E-8
         8444.236     4.365782E-8
         8453.546     4.374935E-8
         8462.865     4.383784E-8
         8472.189     4.392322E-8
         8481.525     4.400544E-8
          8490.88     4.408459E-8
          8500.24     4.417273E-8
         8509.611     4.472017E-8
         8518.987     4.526038E-8
         8528.384     4.579407E-8
          8537.78     4.632004E-8
         8547.188     4.683876E-8
         8556.615     4.735071E-8
         8566.043     4.785462E-8
         8575.486     4.835129E-8
          8584.94     4.884032E-8
         8594.409     4.932182E-8
         8603.879     4.949058E-8
         8613.359     4.921687E-8
         8622.854     4.894138E-8
          8632.36     4.866428E-8
         8641.882     4.838546E-8
         8651.403     4.810404E-8
         8660.937     4.781374E-8
         8670.484     4.752179E-8
         8680.043     4.722837E-8
         8689.611     4.693343E-8
         8699.191     4.663692E-8
         8708.781     4.605440E-8
         8718.382     4.544719E-8
         8727.988     4.484203E-8
          8737.61     4.423831E-8
         8747.242     4.363643E-8
         8756.886     4.303636E-8
         8766.539     4.243826E-8
         8776.203     4.184208E-8
         8785.879     4.124781E-8
          8795.56     4.065588E-8
         8805.256     4.038740E-8
         8814.963     4.038746E-8
         8824.681     4.038243E-8
         8834.408     4.037233E-8
         8844.147     4.035709E-8
         8853.893     4.033664E-8
         8863.653     4.031094E-8
         8873.425     4.027994E-8
         8883.207     4.024357E-8
            8893.     4.020181E-8
         8902.804     4.007093E-8
         8912.618     3.972815E-8
         8922.438     3.938409E-8
         8932.274     3.903845E-8
         8942.122     3.869129E-8
         8951.979     3.834137E-8
         8961.849     3.798469E-8
         8971.728     3.762670E-8
         8981.618     3.726739E-8
         8991.515     3.690689E-8
         9001.427     3.658632E-8
         9011.351     3.650862E-8
         9021.284     3.642581E-8
         9031.229     3.633789E-8
         9041.186     3.624473E-8
         9051.147     3.614641E-8
         9061.126     3.604273E-8
         9071.115     3.593374E-8
         9081.115     3.581933E-8
         9091.126     3.569950E-8
         9101.148     3.557179E-8
         9111.182     3.542012E-8
         9121.221     3.526306E-8
         9131.276     3.510093E-8
         9141.343     3.493327E-8
          9151.42     3.476052E-8
         9161.509     3.458212E-8
         9171.608     3.439855E-8
         9181.719     3.420929E-8
         9191.836     3.401480E-8
          9201.97     3.371361E-8
         9212.113     3.299545E-8
          9222.27     3.228212E-8
         9232.436     3.157414E-8
         9242.613     3.087156E-8
         9252.798     3.017352E-8
         9262.998     2.947706E-8
          9273.21     2.878646E-8
         9283.433     2.810179E-8
         9293.667     2.742300E-8
         9303.912     2.699566E-8
         9314.169     2.696065E-8
         9324.432     2.691537E-8
         9334.711     2.685973E-8
         9345.002     2.679366E-8
         9355.304     2.671707E-8
         9365.617     2.662971E-8
         9375.941     2.653165E-8
         9386.278     2.642286E-8
          9396.62     2.630322E-8
         9406.979     2.577727E-8
          9417.35     2.506388E-8
         9427.731     2.435782E-8
         9438.124     2.365900E-8
         9448.529     2.296768E-8
          9458.94     2.228417E-8
         9469.368     2.160792E-8
         9479.807     2.093937E-8
         9490.258     2.027853E-8
          9500.72     1.966071E-8
         9511.193     1.952006E-8
         9521.679     1.937513E-8
          9532.17     1.922603E-8
         9542.679     1.907259E-8
         9553.198     1.891493E-8
         9563.729     1.875304E-8
         9574.272     1.858695E-8
         9584.828     1.841664E-8
         9595.395     1.824214E-8
         9605.967     1.804521E-8
         9616.557     1.783074E-8
         9627.158     1.761322E-8
         9637.771     1.739271E-8
         9648.396     1.716930E-8
         9659.032     1.694277E-8
         9669.681     1.671324E-8
         9680.335     1.648086E-8
         9691.007     1.624540E-8
          9701.69     1.600445E-8
         9712.386     1.574736E-8
         9723.093     1.548800E-8
         9733.812     1.522639E-8
         9744.536     1.496269E-8
         9755.279     1.469252E-8
         9766.033     1.441616E-8
           9776.8     1.413782E-8
         9787.577     1.385758E-8
         9798.367     1.357540E-8
         9809.169     1.332622E-8
         9819.978     1.307971E-8
         9830.803     1.282905E-8
         9841.641     1.257457E-8
          9852.49     1.231616E-8
         9863.352     1.205397E-8
         9874.225     1.178794E-8
          9885.11     1.151815E-8
         9896.003     1.124474E-8
         9906.912     1.078075E-8
         9917.828     1.022068E-8
         9928.767     9.675312E-9
         9939.713     9.145203E-9
          9950.67     8.630210E-9
         9961.634     8.130484E-9
          9972.61     7.645727E-9
          9983.61     7.175335E-9
         9994.616     6.720086E-9
         10005.63     6.422041E-9
         10016.66     6.264684E-9
         10027.71     6.108388E-9
         10038.76     5.953467E-9
         10049.82     5.799758E-9
          10060.9     5.647139E-9
         10071.99     5.495894E-9
          10083.1     5.345740E-9
         10094.21     5.196988E-9
         10105.34     4.079982E-8
         10116.47     2.463908E-8
         10127.62     3.691239E-9
         10138.79    5.671304E-10
         10149.96     9.063588E-9
         10161.16     2.929097E-8
         10172.35     1.402858E-8
         10183.56     4.116992E-9
         10194.79     7.788935E-9
         10206.03     6.884119E-9
         10217.29     3.698462E-9
         10228.54     9.647800E-9
         10239.83    1.797003E-10
         10251.11     1.426627E-8
          10262.4     1.984711E-8
         10273.72     8.737084E-9
         10285.04     2.900786E-9
         10296.39     1.002195E-9
         10307.73     2.046203E-9
          10319.1     1.629089E-8
         10330.47     2.398366E-9
         10341.85     2.276555E-9
         10353.26     2.156134E-9
         10364.67     3.939379E-9
          10376.1     2.246554E-9
         10387.53     1.358952E-9
         10398.99     1.689838E-9
         10410.45     1.859300E-9
         10421.92     7.892474E-9
         10433.41     6.716355E-9
         10444.91     1.248184E-9
         10456.43     1.141564E-9
         10467.95     1.036614E-9
          10479.5     4.477910E-9
         10491.04    9.181015E-10
          10502.6     2.277690E-9
         10514.19     2.845681E-9
         10525.77    2.994545E-10
         10537.38    5.081641E-10
         10548.99    6.687004E-10
         10560.63     3.691459E-9
         10572.26    6.299770E-10
         10583.91    6.109719E-10
         10595.59     1.253870E-9
         10607.26     1.720913E-9
         10618.96     4.153993E-9
         10630.66     2.042239E-9
         10642.38    3.960433E-10
         10654.11    2.063970E-10
         10665.85    4.844176E-10
         10677.62    4.672732E-10
         10689.38     1.295478E-9
         10701.17    4.845495E-10
         10712.96    7.109862E-10
         10724.77    4.011506E-10
          10736.6    1.311000E-10
         10748.43    6.227935E-10
         10760.27    1.908813E-11
         10772.14     1.184906E-9
         10784.01     1.747346E-9
          10795.9    3.649888E-10
         10807.81    8.197388E-10
         10819.72    2.964168E-10
         10831.65     1.824738E-9
         10843.57    2.529326E-10
         10855.53    1.069442E-10
         10867.51    1.698758E-10
         10879.48    2.133253E-10
         10891.48     1.003140E-9
         10903.48    6.788359E-10
          10915.5    2.727854E-10
         10927.52     1.069103E-9
         10939.58    1.976644E-10
         10951.64    3.535909E-10
         10963.71              0.
         10975.79    6.890945E-11
         10987.88    1.938583E-10
           11000.    3.921572E-10
