#  Table pcf380wsys.tab  Mon 12:21:10 02-Jun-97

#      WAVELENGTH      THROUGHPUT
#       angstroms                

            1850.     1.155190E-6
         1851.651     9.757357E-7
         1853.301     7.946668E-7
         1854.956     6.114493E-7
         1856.611     4.266674E-7
         1858.267     2.400558E-7
         1859.925     5.149324E-8
         1861.584     8.918538E-8
         1863.246     1.380841E-7
         1864.909     1.874643E-7
         1866.572     2.372919E-7
         1868.237     2.876054E-7
         1869.904     3.384335E-7
         1871.573     3.563633E-7
         1873.242     3.724066E-7
         1874.913     3.885960E-7
         1876.585     4.049333E-7
          1878.26     4.214315E-7
         1879.937     4.379093E-7
         1881.613     3.909050E-7
         1883.292     3.409789E-7
         1884.973     2.905866E-7
         1886.654     2.397851E-7
         1888.338     1.885103E-7
         1890.023     1.376132E-7
         1891.709     1.459150E-7
         1893.396     1.542849E-7
         1895.086     1.627275E-7
         1896.775     1.712277E-7
         1898.469     1.798120E-7
         1900.163     1.887872E-7
         1901.857     2.008924E-7
         1903.555     2.131127E-7
         1905.254     2.254336E-7
         1906.953     2.378464E-7
         1908.655     2.503675E-7
         1910.357     2.555704E-7
         1912.061     2.327622E-7
         1913.768     2.097364E-7
         1915.476     1.865039E-7
         1917.184     1.630789E-7
         1918.894     1.394459E-7
         1920.606     1.203708E-7
          1922.32     1.098612E-7
         1924.035     9.925728E-8
         1925.752     8.856419E-8
          1927.47     7.777016E-8
         1929.189     6.688642E-8
          1930.91     6.191470E-8
         1932.634     6.227400E-8
         1934.358     6.263468E-8
         1936.084     6.299651E-8
         1937.811     6.335976E-8
          1939.54     6.372463E-8
          1941.27     7.456348E-8
         1943.003     8.931457E-8
         1944.737     1.041919E-7
          1946.47     1.191769E-7
         1948.207     1.343068E-7
         1949.947     1.495728E-7
         1951.685     1.301979E-7
         1953.427     1.095291E-7
         1955.171     8.867828E-8
         1956.913     6.767007E-8
          1958.66     4.645237E-8
         1960.408     2.913635E-8
         1962.157     2.516205E-8
         1963.908     2.114998E-8
         1965.658     1.710762E-8
         1967.413     1.302498E-8
         1969.169     8.906450E-9
         1970.925     8.110366E-9
         1972.684     1.033828E-8
         1974.444     1.258380E-8
         1976.205     1.484839E-8
         1977.969     1.713479E-8
         1979.734     1.943768E-8
           1981.5     2.605911E-8
         1983.268     3.350852E-8
         1985.037     4.101695E-8
         1986.809     4.859290E-8
         1988.581     5.622764E-8
         1990.355     6.163028E-8
         1992.131     5.785065E-8
         1993.908     5.403709E-8
         1995.688     5.018473E-8
         1997.467     4.630541E-8
          1999.25     4.238704E-8
         2001.034     3.918018E-8
         2002.818     3.648871E-8
         2004.606     3.376435E-8
         2006.396     3.101340E-8
         2008.184     2.823786E-8
         2009.976     2.543059E-8
         2011.769     2.454142E-8
         2013.565     2.366840E-8
         2015.362     2.278594E-8
         2017.158     2.189518E-8
         2018.958     2.099387E-8
          2020.76     2.199499E-8
         2022.563     2.563570E-8
         2024.368     2.931363E-8
         2026.173     3.302396E-8
         2027.982     3.677189E-8
         2029.791     4.055277E-8
         2031.602     4.294041E-8
         2033.414     4.516064E-8
         2035.228     4.740091E-8
         2037.044     4.966270E-8
         2038.861     5.194335E-8
         2040.681     5.140685E-8
         2042.502     4.609135E-8
         2044.324     4.072675E-8
         2046.147     3.531032E-8
         2047.974     2.983778E-8
           2049.8     2.431582E-8
          2051.63     2.296675E-8
         2053.461     2.212521E-8
         2055.291     2.127612E-8
         2057.125     2.041752E-8
         2058.961     1.955027E-8
         2060.798     2.022491E-8
         2062.637     2.293495E-8
         2064.477     2.566762E-8
         2066.318     2.842446E-8
         2068.164     3.120926E-8
         2070.007     3.399485E-8
         2071.855     3.189634E-8
         2073.704     2.977823E-8
         2075.553     2.764157E-8
         2077.405     2.548515E-8
         2079.259     2.330687E-8
         2081.113     2.267161E-8
         2082.971     2.307507E-8
         2084.829     2.348126E-8
         2086.688     2.389040E-8
          2088.55     2.430283E-8
         2090.414     2.499718E-8
         2092.279     2.667656E-8
         2094.145     2.836934E-8
         2096.014     3.007733E-8
         2097.885     3.179909E-8
         2099.756     3.353374E-8
          2101.63     3.466170E-8
         2103.503     3.570354E-8
         2105.381     3.675438E-8
          2107.26     3.781336E-8
         2109.139     3.887962E-8
         2111.022     3.991191E-8
         2112.906     4.091575E-8
         2114.789     4.192556E-8
         2116.677     4.294399E-8
         2118.564     4.396909E-8
         2120.455     4.435525E-8
         2122.348     4.269505E-8
         2124.241     4.102248E-8
         2126.135     3.933597E-8
         2128.033     3.763479E-8
         2129.932     3.591954E-8
         2131.832     3.511887E-8
         2133.734     3.434590E-8
         2135.637     3.356671E-8
         2137.544     3.278017E-8
          2139.45     3.199549E-8
         2141.359     2.972265E-8
          2143.27     2.682735E-8
         2145.182     2.391094E-8
         2147.096     2.097035E-8
         2149.011     1.800885E-8
         2150.929     1.573805E-8
         2152.848     1.421570E-8
         2154.768     1.268210E-8
         2156.692     1.113524E-8
         2158.615     9.579973E-9
         2160.541     9.052186E-9
         2162.469     1.119532E-8
         2164.397     1.335022E-8
          2166.33     1.552379E-8
         2168.263     1.771090E-8
         2170.196     1.977023E-8
         2172.133     2.060454E-8
          2174.07     2.144330E-8
         2176.011     2.228779E-8
         2177.953     2.313741E-8
         2179.895     2.399154E-8
          2181.84     2.359037E-8
         2183.787     2.311434E-8
         2185.735     2.263552E-8
         2187.686     2.215345E-8
         2189.637     2.166864E-8
          2191.59     2.298435E-8
         2193.546     2.472143E-8
         2195.503     2.646743E-8
         2197.462     2.822173E-8
         2199.423     2.998655E-8
         2201.385     2.869871E-8
         2203.348     2.609787E-8
         2205.315     2.344941E-8
         2207.283     2.075503E-8
         2209.252     1.801617E-8
         2211.222     1.617105E-8
         2213.196     1.487427E-8
          2215.17     1.355648E-8
         2217.147     1.221562E-8
         2219.125     1.085254E-8
         2221.104     9.819409E-9
         2223.086     9.048521E-9
         2225.071     8.264615E-9
         2227.055     7.469575E-9
         2229.042     6.660902E-9
         2231.031     7.496484E-9
         2233.021     9.895129E-9
         2235.015     1.233097E-8
         2237.008     1.479821E-8
         2239.003     1.730028E-8
         2241.002     1.900189E-8
         2242.999     1.988649E-8
         2245.002     2.078362E-8
         2247.005     2.169073E-8
         2249.009     2.260897E-8
         2251.016     2.262810E-8
         2253.024     2.175193E-8
         2255.033     2.086245E-8
         2257.046     1.995895E-8
         2259.061     1.904200E-8
         2261.075     1.833457E-8
         2263.092     1.781235E-8
         2265.112     1.728184E-8
         2267.134     1.674329E-8
         2269.156     1.619709E-8
         2271.181     1.568685E-8
         2273.207     1.520143E-8
         2275.234     1.470898E-8
         2277.266     1.420887E-8
         2279.296     1.370271E-8
          2281.33     1.484085E-8
         2283.366     1.687177E-8
         2285.402     1.892406E-8
         2287.441     2.100275E-8
         2289.483     2.310525E-8
         2291.525     2.411251E-8
          2293.57     2.474937E-8
         2295.615     2.539162E-8
         2297.663     2.604806E-8
         2299.715     2.671325E-8
         2301.765     2.730743E-8
          2303.82     2.789577E-8
         2305.876     2.848972E-8
         2307.932     2.908895E-8
         2309.992     2.969426E-8
         2312.051     3.151447E-8
         2314.116     3.336268E-8
          2316.18     3.522895E-8
         2318.246     3.711510E-8
         2320.315     3.830406E-8
         2322.385     3.547751E-8
         2324.457     3.261470E-8
         2326.531     2.971920E-8
         2328.606     2.678883E-8
         2330.685     2.456277E-8
         2332.764     2.383180E-8
         2334.845     2.309137E-8
         2336.927     2.234163E-8
         2339.012     2.158244E-8
         2341.101     1.995719E-8
         2343.188     1.754354E-8
         2345.279     1.510225E-8
         2347.372     1.263203E-8
         2349.467     1.013449E-8
         2351.562     1.159924E-8
         2353.661     1.445031E-8
         2355.759     1.732729E-8
         2357.862     2.023802E-8
         2359.966     2.317860E-8
         2362.071     2.331256E-8
         2364.179     2.339999E-8
         2366.288     2.348736E-8
         2368.398     2.357472E-8
         2370.512     2.409261E-8
         2372.628     2.596915E-8
         2374.744     2.786245E-8
         2376.863     2.977495E-8
         2378.983     3.170455E-8
         2381.105     3.382525E-8
          2383.23     3.612741E-8
         2385.357     3.845071E-8
         2387.485     4.079418E-8
         2389.615     4.315893E-8
         2391.747     4.464991E-8
         2393.881     4.595390E-8
         2396.017     4.726961E-8
         2398.154     4.859539E-8
         2400.293     4.970591E-8
         2402.435     4.939221E-8
          2404.58     4.907405E-8
         2406.724     4.875167E-8
         2408.872     4.842467E-8
         2411.022     4.721314E-8
         2413.171     4.501636E-8
         2415.326     4.279448E-8
         2417.479     4.055572E-8
         2419.637     3.829264E-8
         2421.796     4.072959E-8
         2423.957     4.414355E-8
          2426.12     4.758818E-8
         2428.284     5.105930E-8
         2430.451     5.324224E-8
         2432.619     5.039850E-8
         2434.789     4.752948E-8
         2436.962     4.463280E-8
         2439.136     4.171064E-8
         2441.312     3.717053E-8
          2443.49     3.153865E-8
          2445.67     2.585572E-8
         2447.853     2.012404E-8
         2450.036     1.449370E-8
         2452.222     1.741695E-8
         2454.409     2.036378E-8
           2456.6     2.333626E-8
         2458.792     2.633218E-8
         2460.985     2.744520E-8
          2463.18     2.622006E-8
         2465.379     2.498365E-8
         2467.579     2.373686E-8
         2469.778     2.248108E-8
         2471.983     2.205437E-8
          2474.19     2.171807E-8
         2476.396     2.137925E-8
         2478.606     2.103685E-8
         2480.817     2.129193E-8
         2483.029     2.257790E-8
         2485.247     2.387520E-8
         2487.462     2.517971E-8
         2489.682     2.649549E-8
         2491.904     2.796950E-8
         2494.125     2.947730E-8
         2496.353     3.099907E-8
         2498.579     3.253018E-8
         2500.808     3.273672E-8
          2503.04     3.058429E-8
         2505.272     2.841601E-8
         2507.509     2.622873E-8
         2509.745     2.402574E-8
         2511.985     2.578314E-8
         2514.225     2.806583E-8
         2516.468     3.036579E-8
         2518.714     3.268412E-8
         2520.962     3.328185E-8
          2523.21     3.155085E-8
         2525.462     2.980478E-8
         2527.715     2.804589E-8
         2529.971     2.627180E-8
         2532.229     2.732713E-8
         2534.486     2.842626E-8
         2536.748     2.953459E-8
          2539.01     3.060033E-8
         2541.277     2.965994E-8
         2543.545     2.715777E-8
         2545.813     2.464666E-8
         2548.084     2.212531E-8
         2550.358     2.014660E-8
         2552.635     2.113177E-8
         2554.911     2.211985E-8
         2557.191     2.311231E-8
         2559.471     2.410722E-8
         2561.755     2.507556E-8
         2564.042     2.603805E-8
         2566.329     2.700349E-8
         2568.619     2.797292E-8
         2570.908     2.821905E-8
         2573.205     2.735826E-8
           2575.5     2.649491E-8
         2577.797     2.562765E-8
         2580.097     2.473311E-8
         2582.399     2.331197E-8
         2584.704     2.188380E-8
          2587.01     2.044984E-8
         2589.318     1.901056E-8
         2591.629     1.976570E-8
          2593.94     2.144703E-8
         2596.254     2.313463E-8
         2598.573     2.483096E-8
         2600.889     2.730011E-8
          2603.21     3.102221E-8
         2605.532     3.475655E-8
         2607.856     3.850579E-8
         2610.185     4.165591E-8
         2612.512     3.763423E-8
         2614.843     3.359103E-8
         2617.177     2.953057E-8
          2619.51     2.545805E-8
         2621.849     2.609199E-8
         2624.188     2.798281E-8
         2626.528     2.988095E-8
         2628.873     3.178777E-8
         2631.217     3.189071E-8
         2633.566     3.031192E-8
         2635.916     2.872623E-8
         2638.267     2.713450E-8
          2640.62     2.581537E-8
         2642.977     2.527313E-8
         2645.334     2.472860E-8
         2647.695     2.418118E-8
         2650.057     2.358999E-8
         2652.422     2.130958E-8
         2654.788     1.902089E-8
         2657.157     1.672090E-8
         2659.526     1.441392E-8
         2661.899     1.420494E-8
         2664.275     1.452304E-8
         2666.652     1.484208E-8
         2669.031     1.516240E-8
         2671.412     1.480870E-8
         2673.796     1.398872E-8
         2676.181     1.316571E-8
          2678.57     1.233859E-8
          2680.96     1.282191E-8
          2683.35     1.526661E-8
         2685.746     1.772554E-8
          2688.14     2.018990E-8
          2690.54     2.308753E-8
         2692.941     2.744887E-8
         2695.343     3.182561E-8
         2697.748     3.622212E-8
         2700.153     4.004559E-8
         2702.563     3.524142E-8
         2704.975     3.040246E-8
         2707.387     2.553107E-8
         2709.804     2.062076E-8
         2712.222     2.194493E-8
         2714.642     2.383235E-8
         2717.063     2.573265E-8
         2719.486     2.764626E-8
         2721.915     2.952006E-8
         2724.343     3.138966E-8
         2726.772     3.327203E-8
         2729.205     3.516722E-8
          2731.64     3.272912E-8
         2734.078     2.815656E-8
         2736.517     2.355368E-8
         2738.958     1.891813E-8
         2741.402     1.625121E-8
         2743.849     1.506124E-8
         2746.296     1.386339E-8
         2748.747     1.265609E-8
         2751.198     1.212711E-8
         2753.653     1.231395E-8
         2756.111     1.250123E-8
         2758.569     1.268883E-8
         2761.031     1.272730E-8
         2763.495     1.255773E-8
         2765.958     1.238796E-8
         2768.427     1.221756E-8
         2770.898     1.264210E-8
         2773.369     1.411125E-8
         2775.844     1.558471E-8
          2778.32     1.706075E-8
         2780.799     2.024789E-8
          2783.28     2.704290E-8
         2785.764     3.385430E-8
         2788.249     4.067672E-8
         2790.736     4.454921E-8
         2793.227     4.136129E-8
          2795.72     3.816609E-8
         2798.213     3.496550E-8
         2800.709     3.368749E-8
         2803.209     3.727782E-8
         2805.709     4.087401E-8
         2808.213     4.448068E-8
         2810.718     4.729678E-8
         2813.226     4.813475E-8
         2815.736     4.897402E-8
         2818.247     4.981507E-8
         2820.764     5.123126E-8
         2823.278     5.396053E-8
         2825.798     5.669905E-8
          2828.32     5.944337E-8
         2830.843     5.757856E-8
         2833.369     4.649369E-8
         2835.898     3.538435E-8
         2838.426     2.426556E-8
         2840.959     2.077079E-8
         2843.495     2.986132E-8
         2846.031     3.896521E-8
         2848.571     4.809475E-8
         2851.112     5.018163E-8
         2853.655     4.318979E-8
         2856.202     3.617972E-8
         2858.751     2.915544E-8
         2861.301     2.764617E-8
         2863.853     3.144880E-8
         2866.407     3.525935E-8
         2868.965     3.908001E-8
         2871.526     3.896269E-8
         2874.087     3.616785E-8
         2876.652     3.336545E-8
         2879.218     3.055946E-8
         2881.788     3.122962E-8
         2884.358     3.342615E-8
         2886.931     3.562710E-8
         2889.507     3.783353E-8
         2892.084     3.853016E-8
         2894.666     3.887002E-8
         2897.248     3.921034E-8
         2899.832     3.955125E-8
         2902.421     4.313010E-8
          2905.01     4.692262E-8
         2907.601     5.070860E-8
         2910.198     5.402119E-8
          2912.79     5.161738E-8
         2915.392     4.921157E-8
         2917.992     4.681285E-8
         2920.594     4.471820E-8
         2923.203     4.363832E-8
         2925.807     4.256277E-8
          2928.42     4.148639E-8
         2931.033     4.291659E-8
         2933.646     4.816595E-8
         2936.266     5.341452E-8
         2938.885     5.864609E-8
         2941.506     5.409498E-8
         2944.131     4.231282E-8
         2946.757     3.056054E-8
         2949.387     1.882409E-8
         2952.018     1.842227E-8
         2954.653     2.145363E-8
          2957.29     2.447879E-8
         2959.926     2.749411E-8
         2962.567     3.798548E-8
          2965.21     4.866554E-8
         2967.856     5.932846E-8
         2970.505     6.766425E-8
         2973.155     6.620275E-8
         2975.808     6.474294E-8
         2978.461     6.328769E-8
         2981.121     6.092887E-8
          2983.78     5.733891E-8
         2986.441     5.375634E-8
         2989.104     5.018152E-8
         2991.772     5.091136E-8
         2994.442     5.380968E-8
         2997.113     5.669966E-8
         2999.788     5.958469E-8
         3002.464     4.900543E-8
         3005.142     3.729462E-8
         3007.826     2.559531E-8
         3010.507     1.738772E-8
         3013.194     2.396602E-8
         3015.883     3.052896E-8
         3018.573     3.707227E-8
         3021.267     4.194150E-8
          3023.96     4.492335E-8
          3026.66     4.790319E-8
          3029.36     5.087205E-8
         3032.062     5.546045E-8
          3034.77     6.054832E-8
         3037.475     6.561415E-8
         3040.186     6.992819E-8
         3042.897     6.413455E-8
         3045.612     5.835430E-8
         3048.332     5.258079E-8
         3051.051     5.068189E-8
         3053.772     5.490177E-8
         3056.497     5.911347E-8
         3059.222     6.330830E-8
         3061.954     6.271995E-8
         3064.685     6.023340E-8
         3067.418     5.775265E-8
         3070.156     5.502822E-8
         3072.896     4.820408E-8
         3075.637     4.140121E-8
          3078.38     3.461668E-8
         3081.126     3.218263E-8
         3083.877     3.598757E-8
         3086.628     3.977751E-8
         3089.381     4.355644E-8
         3092.137     4.613825E-8
         3094.895     4.836914E-8
         3097.659     5.059619E-8
         3100.422     5.392430E-8
         3103.187     6.343972E-8
         3105.955     7.299187E-8
         3108.729     8.259265E-8
         3111.501     8.230064E-8
         3114.277     7.358632E-8
         3117.056     6.483254E-8
         3119.836     5.605073E-8
         3122.621     8.594172E-8
         3125.406     1.183571E-7
         3128.195     1.509149E-7
         3130.985     1.957662E-7
         3133.778     2.631711E-7
         3136.575     3.308768E-7
         3139.373     3.988012E-7
         3142.175     5.487079E-7
         3144.979     7.228010E-7
         3147.784     8.974755E-7
         3150.592     1.143517E-6
         3153.405     1.656629E-6
         3156.218     2.171046E-6
         3159.035     2.687800E-6
         3161.851     3.484333E-6
         3164.674     4.431314E-6
         3167.497     5.380785E-6
         3170.322     6.482840E-6
         3173.152     8.749955E-6
         3175.982     1.102457E-5
         3178.816     1.330926E-5
         3181.652     1.639241E-5
          3184.49     2.005511E-5
         3187.333     2.373694E-5
         3190.175     2.764910E-5
         3193.022     3.500283E-5
          3195.87     4.238091E-5
         3198.722     4.979165E-5
         3201.577     5.893076E-5
         3204.433     6.948024E-5
         3207.291     8.007003E-5
         3210.151     9.110414E-5
         3213.018     1.094522E-4
         3215.884     1.278472E-4
         3218.752     1.463143E-4
         3221.623     1.676631E-4
         3224.499     1.912749E-4
         3227.376     2.149786E-4
         3230.255     2.399328E-4
         3233.136     2.770837E-4
          3236.02     3.143797E-4
         3238.908     3.518434E-4
         3241.799     3.925395E-4
          3244.69     4.352461E-4
         3247.584     4.781234E-4
         3250.485     5.242966E-4
         3253.384     5.859666E-4
         3256.286     6.478771E-4
         3259.192     7.100652E-4
         3262.097     7.749816E-4
          3265.01     8.412711E-4
         3267.922     9.077296E-4
         3270.837     9.643562E-4
         3273.758     9.961403E-4
         3276.675     0.001027964
         3279.601      0.00105999
         3282.526     0.001092089
         3285.454     0.001124313
         3288.388     0.001156697
         3291.319      0.00121327
         3294.257     0.001302165
         3297.195     0.001388655
         3300.137     0.001478603
         3303.083     0.001571721
         3306.029       0.0016654
         3308.979     0.001766685
         3311.931     0.001866807
         3314.885     0.001965587
         3317.844     0.002073921
         3320.803     0.002185697
         3323.767     0.002297967
         3326.731     0.002414295
           3329.7     0.002535181
          3332.67     0.002651341
         3335.643     0.002780039
         3338.622     0.002914733
         3341.599     0.003044083
          3344.58     0.003183038
         3347.563     0.003331804
         3350.551     0.003477638
         3353.541     0.003624813
         3356.532     0.003775654
         3359.528     0.003932055
         3362.524     0.004099959
         3365.525     0.004266938
         3368.527     0.004447681
         3371.532     0.004634169
         3374.541     0.004814223
         3377.551     0.004999279
         3380.565     0.005197485
         3383.582     0.005405625
         3386.598     0.005609091
         3389.623     0.005821935
         3392.646     0.006031309
         3395.672      0.00622163
         3398.705     0.006392585
         3401.732     0.006701531
          3404.77     0.006933316
         3407.807     0.007176197
         3410.847     0.007415903
         3413.893     0.007657097
         3416.938     0.007908742
         3419.985     0.008161845
         3423.038     0.008405719
         3426.089     0.008658749
         3429.148     0.008910468
         3432.207     0.009154978
         3435.268     0.009400482
         3438.334     0.009646421
         3441.401     0.009890413
         3444.473      0.01013906
         3447.545      0.01038526
         3450.622      0.01062809
         3453.701      0.01085964
         3456.782      0.01108443
         3459.865      0.01130129
         3462.951      0.01151222
         3466.042      0.01172402
         3469.135      0.01193441
         3472.229      0.01214515
         3475.326      0.01234498
         3478.426       0.0125328
         3481.532      0.01271693
         3484.638      0.01290395
         3487.746       0.0130927
         3490.859      0.01326816
         3493.972      0.01344255
         3497.091      0.01361586
          3500.21      0.01378932
         3503.334      0.01395597
          3506.46      0.01411648
         3509.586      0.01427978
          3512.72      0.01444083
         3515.852       0.0145982
         3518.989      0.01476006
          3522.13      0.01493646
         3525.271      0.01510965
         3528.418      0.01528059
         3531.563      0.01544544
         3534.717      0.01561402
          3537.87      0.01578749
         3541.025      0.01596388
         3544.188      0.01614988
         3547.349      0.01632534
         3550.513      0.01650381
         3553.679      0.01669127
         3556.849      0.01688252
         3560.026      0.01708009
         3563.201       0.0172827
         3566.379      0.01747723
         3569.562      0.01768323
         3572.746      0.01789757
         3575.935        0.018115
         3579.124       0.0183462
         3582.316      0.01855826
         3585.513      0.01877225
         3588.714      0.01899026
         3591.915      0.01921795
         3595.118      0.01944442
         3598.325      0.01966229
         3601.538      0.01988493
         3604.751      0.02011218
         3607.966      0.02033582
         3611.184      0.02057023
         3614.409      0.02081342
         3617.633      0.02103294
         3620.859      0.02125102
         3624.089      0.02147187
         3627.322      0.02168787
         3630.561      0.02190852
         3633.799      0.02211411
          3637.04      0.02232519
         3640.286      0.02252585
         3643.533      0.02271111
         3646.785       0.0228972
         3650.038       0.0230839
         3653.295      0.02326871
         3656.556      0.02343413
         3659.815      0.02360776
         3663.082      0.02377976
         3666.353      0.02394007
         3669.621      0.02408851
         3672.896      0.02424166
         3676.172      0.02439533
         3679.451      0.02454957
         3682.737      0.02469148
         3686.022      0.02482137
         3689.309      0.02494407
           3692.6      0.02506766
         3695.896      0.02518625
         3699.194      0.02532264
         3702.494      0.02545155
         3705.798      0.02556591
         3709.101      0.02569194
         3712.412      0.02581473
         3715.725      0.02593865
         3719.039      0.02604925
         3722.358      0.02616838
         3725.678      0.02628157
         3729.004      0.02640331
          3732.33      0.02652049
         3735.659      0.02663892
         3738.995      0.02676363
          3742.33      0.02689531
         3745.668      0.02703159
         3749.009      0.02715756
         3752.354      0.02729004
         3755.703      0.02743617
         3759.053      0.02757362
         3762.408      0.02771147
         3765.764      0.02785469
         3769.125      0.02798845
         3772.487      0.02813915
         3775.852       0.0282927
         3779.222      0.02844999
         3782.594      0.02860856
         3785.968      0.02876139
         3789.345        0.028917
         3792.725       0.0290784
         3796.112      0.02926031
         3799.498      0.02942596
         3802.887      0.02958737
         3806.279      0.02976037
         3809.676      0.02992841
         3813.076      0.03009303
         3816.477      0.03025028
         3819.881      0.03043325
          3823.29      0.03060876
           3826.7      0.03078263
         3830.116      0.03096036
         3833.532      0.03113188
         3836.951      0.03129881
         3840.378      0.03146358
         3843.803      0.03161947
         3847.232      0.03179491
         3850.663      0.03196038
         3854.102      0.03212084
          3857.54      0.03229034
          3860.98      0.03248335
         3864.426      0.03265226
         3867.875      0.03281107
         3871.325       0.0329668
         3874.778      0.03311946
         3878.234      0.03327259
         3881.695       0.0334147
         3885.157      0.03356646
         3888.625      0.03371716
         3892.094      0.03386597
         3895.565      0.03400145
         3899.044       0.0341357
         3902.521      0.03427741
         3906.002      0.03442229
         3909.489      0.03454488
         3912.975      0.03465653
         3916.468      0.03478738
         3919.961      0.03490815
         3923.457      0.03501082
         3926.961      0.03512485
         3930.462      0.03522933
         3933.969      0.03535338
         3937.478      0.03544378
         3940.992      0.03554212
          3944.51      0.03563325
         3948.028      0.03571357
          3951.55      0.03580795
         3955.074      0.03590499
         3958.606      0.03598841
         3962.137      0.03607399
         3965.671      0.03613975
          3969.21      0.03620049
          3972.75      0.03626329
         3976.296      0.03633962
         3979.843      0.03640533
         3983.395      0.03646195
          3986.95      0.03651793
         3990.504      0.03656589
         3994.065      0.03660167
          3997.63      0.03665615
         4001.196       0.0366785
         4004.767      0.03665515
         4008.339      0.03664141
         4011.914      0.03661096
         4015.494      0.03658489
         4019.078      0.03655575
         4022.663      0.03651719
         4026.251      0.03646456
         4029.844      0.03642269
         4033.441      0.03638928
         4037.039      0.03636168
         4040.639      0.03631926
         4044.243      0.03630074
         4047.855      0.03627267
         4051.465      0.03625002
         4055.079      0.03621832
         4058.698      0.03618306
         4062.316      0.03614105
         4065.944      0.03611173
          4069.57      0.03608241
           4073.2      0.03606495
         4076.838      0.03604273
         4080.472      0.03600942
         4084.114      0.03596168
         4087.756      0.03592581
         4091.405       0.0358991
         4095.056      0.03588421
         4098.708      0.03584649
         4102.367      0.03580217
         4106.026      0.03577608
         4109.688      0.03574981
         4113.356      0.03571023
         4117.025      0.03566054
         4120.699      0.03562364
         4124.375      0.03557934
         4128.056      0.03552027
         4131.738      0.03548177
         4135.423      0.03542546
         4139.116      0.03537932
         4142.808      0.03533842
         4146.503      0.03528723
         4150.201      0.03524153
         4153.903      0.03518654
         4157.613      0.03512027
         4161.321      0.03506151
         4165.033      0.03498484
         4168.748      0.03490397
         4172.466      0.03482549
         4176.192      0.03475266
         4179.917      0.03466041
         4183.645      0.03455746
         4187.379      0.03444288
         4191.116      0.03432268
         4194.854      0.03419838
         4198.596      0.03405237
         4202.343      0.03392435
         4206.094      0.03380346
         4209.845       0.0336725
         4213.603      0.03353676
         4217.358      0.03338919
         4221.123      0.03322023
          4224.89      0.03303636
         4228.658      0.03285266
         4232.432      0.03265595
         4236.208      0.03243679
         4239.988      0.03223813
          4243.77      0.03203864
         4247.555      0.03182166
         4251.348      0.03160002
          4255.14       0.0313767
         4258.936      0.03116367
         4262.734      0.03096437
         4266.537       0.0307802
         4270.347      0.03059366
         4274.155      0.03042685
         4277.968      0.03026432
         4281.786       0.0301122
         4285.605      0.02995392
          4289.43      0.02979347
         4293.256      0.02967076
         4297.085       0.0295542
         4300.922      0.02944584
         4304.759      0.02933656
         4308.598      0.02924488
         4312.441       0.0291682
          4316.29      0.02911154
         4320.142      0.02905954
         4323.996      0.02901799
         4327.854      0.02898732
         4331.715      0.02898276
         4335.581      0.02898845
         4339.448      0.02901141
         4343.318      0.02904103
         4347.195      0.02907642
         4351.072      0.02912367
         4354.956      0.02918119
          4358.84      0.02923878
         4362.728      0.02930456
         4366.624      0.02935885
         4370.519      0.02939849
         4374.417       0.0294129
         4378.318       0.0294193
         4382.229      0.02938943
         4386.137      0.02932016
         4390.049      0.02919613
         4393.967      0.02902043
         4397.889      0.02877098
         4401.812       0.0284599
         4405.738      0.02805327
         4409.667      0.02756246
         4413.603      0.02698807
         4417.542      0.02631913
         4421.482      0.02555415
         4425.426      0.02469029
         4429.373      0.02375603
         4433.329      0.02275313
         4437.283      0.02168775
         4441.241      0.02057371
         4445.205      0.01943814
         4449.169      0.01829457
          4453.14      0.01714391
         4457.112      0.01600681
         4461.088      0.01488428
         4465.069      0.01379972
         4469.052      0.01275715
         4473.041      0.01177273
          4477.03      0.01083962
         4481.028     0.009964935
         4485.022     0.009151637
         4489.025     0.008382791
         4493.032     0.007680331
         4497.039     0.007033034
         4501.053     0.006442847
         4505.067     0.005916351
         4509.086      0.00544054
         4513.107     0.005005873
         4517.136     0.004606499
         4521.167     0.004239751
           4525.2      0.00390648
         4529.238     0.003598635
         4533.281     0.003320074
         4537.324     0.003067493
         4541.371     0.002833708
         4545.422     0.002623685
         4549.479     0.002426966
         4553.539     0.002245338
           4557.6     0.002082876
         4561.668     0.001988424
         4565.734     0.001900516
         4569.809     0.001811677
         4573.887      0.00172204
         4577.967     0.001631626
         4582.053     0.001531834
         4586.142     0.001422664
         4590.233     0.001314441
         4594.327     0.001236129
         4598.425     0.001157128
         4602.529     0.001080853
         4606.637     0.001006079
         4610.746     9.346354E-4
          4614.86     8.803665E-4
         4618.979     8.256120E-4
         4623.097     7.725130E-4
         4627.223     7.195699E-4
          4631.35     6.711316E-4
         4635.483     6.324291E-4
         4639.621     5.933938E-4
         4643.759     5.556304E-4
           4647.9     5.177060E-4
         4652.046     4.845893E-4
         4656.198     4.564702E-4
         4660.354     4.282143E-4
         4664.511     4.008302E-4
         4668.673     3.732037E-4
          4672.84     3.503880E-4
         4677.005     3.297758E-4
          4681.18     3.091437E-4
         4685.355     2.888156E-4
         4689.537     2.683047E-4
         4693.722     2.525277E-4
         4697.909     2.372425E-4
         4702.102     2.221671E-4
         4706.293     2.073313E-4
         4710.493     1.928333E-4
         4714.697     1.818276E-4
         4718.902     1.707383E-4
         4723.114     1.599583E-4
          4727.33     1.492354E-4
         4731.543     1.394990E-4
         4735.766     1.315170E-4
          4739.99     1.234743E-4
         4744.221     1.156122E-4
         4748.455     1.076876E-4
          4752.69     1.010437E-4
         4756.932     9.511606E-5
         4761.172     8.920973E-5
         4765.421     8.341084E-5
         4769.674     7.756594E-5
         4773.929     7.308720E-5
         4778.189     6.868720E-5
         4782.454     6.431362E-5
         4786.719     5.995305E-5
         4790.989     5.581907E-5
         4795.262     5.252237E-5
         4799.542     4.919756E-5
         4803.826     4.595311E-5
          4808.11     4.269814E-5
         4812.401     3.989497E-5
         4816.696     3.744852E-5
         4820.993     3.500236E-5
         4825.292     3.259761E-5
         4829.597     3.017388E-5
         4833.907     2.834357E-5
         4838.221     2.656238E-5
         4842.537     2.479084E-5
         4846.855     2.302150E-5
         4851.179     2.137178E-5
         4855.508     2.006609E-5
         4859.842     1.875037E-5
         4864.177     1.748994E-5
         4868.518     1.622162E-5
         4872.863     1.517046E-5
         4877.209     1.422964E-5
          4881.56     1.329563E-5
         4885.914     1.237997E-5
         4890.277     1.147158E-5
         4894.639     1.078448E-5
         4899.004     1.009218E-5
         4903.376     9.439468E-6
         4907.748     8.795929E-6
          4912.13     8.230274E-6
         4916.512     7.750005E-6
         4920.897     7.271063E-6
         4925.289     6.807525E-6
         4929.685     6.340485E-6
         4934.082     5.997755E-6
         4938.482     5.662356E-6
         4942.887     5.336656E-6
         4947.301     5.014575E-6
         4951.714     4.722628E-6
         4956.131     4.479284E-6
         4960.554     4.235267E-6
         4964.976     3.998436E-6
          4969.41     3.759417E-6
         4973.842     3.568196E-6
         4978.278     3.383183E-6
         4982.724     3.196318E-6
         4987.168     3.008157E-6
         4991.617     2.833558E-6
         4996.069     2.683941E-6
         5000.528     2.533227E-6
         5004.991     2.381993E-6
         5009.455     2.229540E-6
         5013.923     2.098466E-6
         5018.398     1.969363E-6
         5022.874     1.834798E-6
         5027.357     1.696518E-6
         5031.841     1.569302E-6
         5036.329     1.458512E-6
         5040.827     1.349028E-6
         5045.323     1.249312E-6
         5049.823     1.148750E-6
         5054.327     1.065115E-6
         5058.838     9.814589E-7
         5063.353     9.000734E-7
         5067.869     8.191031E-7
          5072.39     7.527706E-7
         5076.919     6.995425E-7
         5081.448     6.451080E-7
          5085.98     5.884526E-7
         5090.516     5.343602E-7
          5095.06     5.034522E-7
         5099.607     4.722893E-7
         5104.155     4.330319E-7
         5108.708     3.927064E-7
         5113.265     3.644276E-7
         5117.828     3.408218E-7
         5122.396     3.175874E-7
         5126.965     2.946947E-7
         5131.538     2.746009E-7
          5136.12     2.602405E-7
         5140.701     2.457465E-7
         5145.287     2.309427E-7
         5149.876     2.160200E-7
         5154.472     2.047520E-7
         5159.072     1.934987E-7
         5163.674     1.818259E-7
         5168.283     1.699664E-7
         5172.895     1.587533E-7
         5177.506     1.479032E-7
         5182.127     1.374133E-7
         5186.749     1.273860E-7
         5191.378     1.189278E-7
         5196.012     1.143220E-7
         5200.646     1.093154E-7
         5205.285     1.019942E-7
         5209.928     9.461564E-8
         5214.577     9.385874E-8
         5219.231     9.320004E-8
         5223.887     8.947694E-8
         5228.549     8.511463E-8
         5233.215     8.273916E-8
          5237.88     8.126238E-8
         5242.555     7.905874E-8
         5247.231     7.624528E-8
         5251.914     7.386286E-8
         5256.601     7.212236E-8
          5261.29     7.059350E-8
         5265.985     6.964701E-8
          5270.68     6.836427E-8
         5275.383     6.511589E-8
         5280.092     6.177746E-8
         5284.801     5.515400E-8
         5289.518     4.847699E-8
         5294.239     5.146799E-8
         5298.958     5.558383E-8
         5303.687     5.468486E-8
         5308.418     5.234707E-8
         5313.155     5.170858E-8
         5317.897     5.192947E-8
         5322.641     5.220077E-8
         5327.391     5.251316E-8
          5332.14     5.447382E-8
         5336.899     5.846957E-8
         5341.662     6.126387E-8
         5346.426     6.177559E-8
         5351.198     6.212968E-8
         5355.974     6.200462E-8
         5360.751     6.156056E-8
         5365.532     5.940581E-8
         5370.318     5.735721E-8
         5375.111     5.701965E-8
         5379.908     5.667875E-8
         5384.707     5.768785E-8
         5389.513     5.872998E-8
         5394.323     6.158516E-8
         5399.131     6.465968E-8
          5403.95     6.234487E-8
          5408.77     5.881979E-8
         5413.597     6.038197E-8
         5418.429     6.370932E-8
         5423.262     6.406641E-8
         5428.099     6.297893E-8
          5432.94     6.353091E-8
         5437.792     6.515697E-8
         5442.643     6.495308E-8
         5447.497     6.320568E-8
         5452.359     6.311997E-8
         5457.225     6.481724E-8
         5462.092     6.760821E-8
         5466.964     7.186100E-8
          5471.84     7.550040E-8
         5476.724     7.810468E-8
         5481.612     8.178102E-8
         5486.501     8.763245E-8
         5491.398     9.466648E-8
         5496.293     1.046033E-7
         5501.198     1.134284E-7
         5506.108     1.186221E-7
         5511.019     1.267966E-7
         5515.938     1.463520E-7
          5520.86     1.655285E-7
         5525.785     1.824587E-7
         5530.713     2.011629E-7
         5535.646     2.299007E-7
         5540.587     2.597632E-7
         5545.532     2.967832E-7
         5550.478     3.345547E-7
         5555.432     3.778708E-7
         5560.387     4.230233E-7
         5565.347     4.875293E-7
         5570.313     5.522401E-7
         5575.282     6.141795E-7
         5580.258     6.775573E-7
         5585.238     7.605954E-7
          5590.22     8.436592E-7
         5595.206     9.186794E-7
         5600.197     9.947373E-7
         5605.198     1.086207E-6
         5610.197     1.176586E-6
         5615.201     1.235112E-6
         5620.213     1.294198E-6
         5625.226     1.360434E-6
         5630.246     1.424741E-6
         5635.268     1.446256E-6
         5640.294     1.466339E-6
         5645.328     1.462280E-6
         5650.367     1.456472E-6
         5655.406     1.428580E-6
         5660.451     1.396962E-6
         5665.502     1.328246E-6
         5670.559     1.257727E-6
         5675.617     1.174594E-6
         5680.679     1.091010E-6
         5685.752     1.006129E-6
         5690.823     9.162162E-7
         5695.899     8.010365E-7
         5700.979     6.927411E-7
         5706.064     6.146297E-7
          5711.16     5.386325E-7
         5716.254     4.709175E-7
         5721.353     4.051693E-7
         5726.456     3.453176E-7
         5731.567     2.931269E-7
         5736.682     2.586915E-7
         5741.799     2.252439E-7
          5746.92     1.936914E-7
         5752.053     1.668466E-7
         5757.183     1.472354E-7
         5762.318     1.303973E-7
         5767.458     1.169607E-7
         5772.602     1.059465E-7
         5777.757     9.730282E-8
         5782.911     9.058070E-8
         5788.068     8.533375E-8
         5793.237     7.932687E-8
         5798.401     7.287137E-8
         5803.577     6.909342E-8
         5808.753     6.651710E-8
         5813.937     6.726084E-8
         5819.126     6.906438E-8
         5824.316     6.730253E-8
         5829.511     6.480977E-8
         5834.711     6.246004E-8
         5839.918     6.011629E-8
          5845.13     5.977126E-8
         5850.344     5.968654E-8
         5855.562     6.286122E-8
         5860.792     6.515918E-8
         5866.016     6.246091E-8
         5871.251     6.105531E-8
         5876.488     6.381067E-8
         5881.732     6.530891E-8
         5886.982     6.423561E-8
         5892.232     6.329024E-8
         5897.491     6.251852E-8
         5902.749     6.263337E-8
         5908.017     6.356226E-8
          5913.29     6.404922E-8
         5918.563     6.426863E-8
         5923.846     6.203278E-8
         5929.133     5.886957E-8
         5934.421     6.237535E-8
         5939.714     6.720535E-8
         5945.012     6.435354E-8
         5950.318     6.142686E-8
         5955.629     6.441116E-8
         5960.941     6.653033E-8
         5966.258     6.459090E-8
         5971.579     6.350481E-8
         5976.909     6.445828E-8
         5982.243     6.560573E-8
         5987.579     6.701961E-8
         5992.923     6.614283E-8
         5998.271     6.335650E-8
         6003.622     6.520040E-8
         6008.976     6.926140E-8
         6014.336     6.868346E-8
         6019.704     6.700586E-8
         6025.076     6.493740E-8
          6030.45     6.303645E-8
         6035.832     6.323058E-8
         6041.219     6.392600E-8
         6046.604     6.633393E-8
         6052.001     6.699374E-8
         6057.399     6.467612E-8
         6062.805     6.591796E-8
         6068.216     7.046917E-8
         6073.628     6.997328E-8
         6079.046     6.699057E-8
         6084.468     6.609356E-8
         6089.898     6.564169E-8
         6095.333     6.596847E-8
          6100.77     6.571808E-8
         6106.215     6.187207E-8
         6111.665     6.085521E-8
         6117.112     6.628188E-8
         6122.572     6.698849E-8
         6128.033     6.237777E-8
         6133.502     6.228139E-8
         6138.976     6.472854E-8
         6144.452     6.793498E-8
         6149.936     7.132213E-8
         6155.417     7.070995E-8
         6160.911     6.972504E-8
          6166.41     6.711020E-8
          6171.91     6.581629E-8
         6177.418     6.701045E-8
         6182.932     6.608386E-8
         6188.443     6.328879E-8
         6193.966     6.459794E-8
         6199.491     6.752244E-8
         6205.024     6.641883E-8
         6210.562     6.491033E-8
         6216.101     6.345135E-8
         6221.649     6.295779E-8
         6227.195     6.475290E-8
         6232.756     6.442006E-8
         6238.315     6.191598E-8
         6243.879     6.123902E-8
         6249.452     6.135719E-8
         6255.029     6.523511E-8
         6260.608     6.870999E-8
         6266.193     6.552045E-8
         6271.782     6.431388E-8
         6277.379     6.735682E-8
         6282.982     7.018576E-8
         6288.586     7.282495E-8
         6294.198     7.066780E-8
         6299.809     6.689375E-8
         6305.435     6.328606E-8
         6311.059     6.093401E-8
         6316.688     6.396884E-8
         6322.326     6.561974E-8
         6327.968     6.529184E-8
         6333.612     6.595170E-8
         6339.262     6.716856E-8
         6344.916     6.857569E-8
         6350.579     6.979932E-8
         6356.247     6.914017E-8
         6361.916     6.922950E-8
         6367.594     7.078867E-8
         6373.277     7.189613E-8
         6378.961     7.267110E-8
         6384.651     7.219450E-8
         6390.346     7.143735E-8
         6396.049     7.067775E-8
         6401.757     6.925281E-8
         6407.467     6.633289E-8
         6413.183     6.589618E-8
         6418.906     6.744025E-8
         6424.631     6.890799E-8
         6430.365     7.004785E-8
         6436.104     6.659869E-8
         6441.845     6.530615E-8
         6447.594     6.857455E-8
         6453.345     6.977287E-8
         6459.101     6.948159E-8
         6464.866     6.724730E-8
         6470.632     6.452199E-8
         6476.407     6.072116E-8
         6482.184     6.007799E-8
         6487.969     6.463756E-8
         6493.756     6.490532E-8
         6499.548     6.284975E-8
         6505.349     6.210074E-8
         6511.154     6.175433E-8
         6516.962     6.257926E-8
         6522.778     6.222300E-8
         6528.596     6.057932E-8
         6534.419     6.075577E-8
         6540.251     6.157604E-8
         6546.088     6.388777E-8
         6551.927     6.439977E-8
         6557.771     6.127433E-8
         6563.624     6.123248E-8
         6569.478     6.308169E-8
         6575.341     6.414689E-8
         6581.206     6.483949E-8
          6587.08     6.439966E-8
         6592.955     6.271325E-8
         6598.839     5.979695E-8
         6604.729     5.957273E-8
         6610.616     6.021988E-8
         6616.516     6.269121E-8
         6622.421     6.417135E-8
         6628.328     6.423141E-8
         6634.244     6.340765E-8
         6640.165     6.230554E-8
         6646.087     6.356755E-8
         6652.015     6.426806E-8
         6657.948     6.388375E-8
         6663.891     6.322436E-8
         6669.838     6.242125E-8
         6675.787     6.437974E-8
         6681.745     6.454461E-8
         6687.701     6.021227E-8
          6693.67     5.881472E-8
         6699.644     5.925345E-8
          6705.62     5.820864E-8
         6711.604     5.734815E-8
         6717.594     5.724341E-8
         6723.586     5.951489E-8
         6729.583     6.337241E-8
         6735.585     6.276183E-8
         6741.597     6.314427E-8
         6747.613     6.718409E-8
         6753.632     6.950822E-8
          6759.66     7.070896E-8
         6765.692     7.559635E-8
         6771.723     7.992604E-8
         6777.767     8.235454E-8
         6783.813     8.995659E-8
         6789.867     1.005741E-7
         6795.927     1.062381E-7
         6801.988     1.135112E-7
         6808.055     1.243243E-7
         6814.127     1.359000E-7
         6820.209     1.480912E-7
         6826.296     1.677896E-7
         6832.385     1.889934E-7
         6838.482     2.125913E-7
         6844.586     2.344567E-7
         6850.687     2.567008E-7
         6856.801     2.869639E-7
         6862.917     3.169570E-7
         6869.042     3.467028E-7
         6875.173     3.866173E-7
         6881.305     4.264585E-7
         6887.446     4.594791E-7
         6893.586     5.047821E-7
         6899.738     5.588472E-7
         6905.896     6.046576E-7
         6912.056     6.494026E-7
         6918.225     6.929648E-7
         6924.399     7.356446E-7
         6930.572     7.782311E-7
         6936.757     8.246274E-7
         6942.944     8.646389E-7
         6949.141     8.976999E-7
         6955.343     9.281628E-7
         6961.546     9.564096E-7
          6967.76     9.794776E-7
         6973.971     1.001162E-6
         6980.195     1.021903E-6
         6986.424     1.037153E-6
         6992.656     1.044685E-6
         6998.897     1.041888E-6
         7005.143     1.036138E-6
         7011.392     1.030460E-6
         7017.645     1.027188E-6
         7023.904     1.013869E-6
         7030.173     9.945359E-7
         7036.448     9.750818E-7
         7042.724     9.513888E-7
         7049.009     9.221395E-7
         7055.292     8.937424E-7
         7061.589     8.669899E-7
         7067.892     8.445628E-7
         7074.196     8.156308E-7
          7080.51     7.834768E-7
         7086.829     7.512688E-7
          7093.15     7.191698E-7
         7099.477     6.871567E-7
         7105.809     6.567823E-7
         7112.151     6.258657E-7
         7118.498     5.935333E-7
         7124.848     5.614961E-7
         7131.207     5.312313E-7
         7137.571     5.079139E-7
         7143.933     4.807459E-7
         7150.309     4.514078E-7
         7156.687     4.259867E-7
         7163.074     4.030003E-7
         7169.467     3.826328E-7
         7175.862     3.638305E-7
         7182.262     3.430270E-7
         7188.668     3.182619E-7
         7195.084     2.987624E-7
         7201.506     2.816149E-7
         7207.929     2.675240E-7
         7214.362     2.548021E-7
         7220.801     2.427550E-7
         7227.237     2.307235E-7
         7233.688     2.181031E-7
         7240.144     2.051181E-7
         7246.601     1.942197E-7
         7253.069     1.845846E-7
         7259.538     1.763472E-7
         7266.017     1.685527E-7
         7272.498     1.591257E-7
         7278.989     1.470230E-7
         7285.481     1.453721E-7
         7291.979     1.421443E-7
         7298.487     1.309618E-7
         7305.001     1.242551E-7
         7311.517     1.180365E-7
         7318.038     1.089475E-7
         7324.569     1.033570E-7
         7331.103     9.946025E-8
         7337.646     9.647521E-8
          7344.19     9.475081E-8
         7350.745     9.363786E-8
         7357.301     9.180452E-8
         7363.867     8.856057E-8
         7370.436     8.432500E-8
         7377.014     7.979276E-8
         7383.593     7.682750E-8
         7390.183     7.514362E-8
         7396.775     7.312366E-8
         7403.372     7.251020E-8
         7409.979     7.323209E-8
         7416.589     6.891384E-8
         7423.208     6.572514E-8
         7429.829     6.374766E-8
          7436.46     6.244984E-8
         7443.097     6.268276E-8
         7449.736     6.463043E-8
         7456.381     6.076343E-8
         7463.036     5.778066E-8
         7469.692     5.613014E-8
         7476.359     5.028333E-8
         7483.027     4.868187E-8
         7489.702     5.238416E-8
         7496.386     5.149520E-8
         7503.077     4.948297E-8
         7509.769     4.641164E-8
         7516.471     4.846769E-8
         7523.175     4.876324E-8
          7529.89     4.691599E-8
         7536.606     4.702460E-8
         7543.328     4.699054E-8
         7550.061     4.673421E-8
         7556.794     4.155508E-8
         7563.539     4.107103E-8
          7570.29     4.452241E-8
         7577.042     4.157029E-8
           7583.8     4.214629E-8
         7590.568     4.490464E-8
         7597.339     4.172976E-8
         7604.119     3.871629E-8
         7610.906     3.662387E-8
         7617.694     3.979192E-8
         7624.489     3.992330E-8
          7631.29     3.833047E-8
           7638.1     3.599262E-8
         7644.917     3.718003E-8
         7651.736     3.868241E-8
         7658.565     3.716625E-8
         7665.396     3.844358E-8
         7672.233     3.940222E-8
         7679.081     3.819592E-8
          7685.93     3.759070E-8
          7692.79     3.689601E-8
         7699.655     3.593723E-8
         7706.523     3.679915E-8
         7713.401     3.698111E-8
         7720.276     3.646348E-8
         7727.167     3.802496E-8
         7734.063     3.969307E-8
         7740.961     4.067005E-8
          7747.87     3.695406E-8
         7754.785     3.532400E-8
         7761.697     3.491028E-8
         7768.625     3.538712E-8
         7775.554     3.579672E-8
         7782.494     3.651522E-8
         7789.439     3.781092E-8
         7796.387     3.318468E-8
         7803.345     3.054011E-8
         7810.301     3.064789E-8
         7817.271     3.233191E-8
         7824.249     3.290547E-8
         7831.227     3.293208E-8
         7838.216     3.371277E-8
         7845.212     3.455875E-8
         7852.209     3.452272E-8
         7859.213     3.254192E-8
         7866.223     3.163247E-8
         7873.244     3.148491E-8
         7880.271     3.211736E-8
         7887.299     3.412995E-8
         7894.338     3.423656E-8
         7901.375     3.302812E-8
         7908.427     3.125267E-8
         7915.485     3.547614E-8
         7922.545     3.796276E-8
         7929.616     3.438555E-8
         7936.693     3.387853E-8
         7943.772     3.406539E-8
         7950.858     3.458710E-8
          7957.95     3.427225E-8
         7965.052     3.471147E-8
         7972.161     3.516371E-8
         7979.271     3.495432E-8
         7986.393     3.664988E-8
         7993.521     4.425782E-8
         8000.646     5.434960E-8
         8007.786     3.157232E-8
         8014.929     3.096785E-8
         8022.082     3.472415E-8
         8029.242     2.519835E-8
         8036.403     2.407958E-8
         8043.576     2.395021E-8
         8050.746     2.382117E-8
         8057.931     2.369219E-8
         8065.123     2.356339E-8
         8072.316     2.716980E-8
         8079.521     3.857624E-8
         8086.731     2.839177E-8
          8093.94     2.305037E-8
         8101.164     2.341936E-8
         8108.389     2.635712E-8
         8115.626     2.686977E-8
         8122.869     2.550892E-8
         8130.114     2.243739E-8
          8137.37     2.382930E-8
         8144.628     2.327799E-8
         8151.893     2.203356E-8
         8159.168     2.190730E-8
         8166.446     2.212323E-8
         8173.734     2.374038E-8
         8181.029     2.572000E-8
         8188.326     2.218176E-8
          8195.63     2.127931E-8
         8202.939     2.235002E-8
         8210.261     2.498123E-8
         8217.588     2.226578E-8
         8224.918     3.851362E-8
         8232.259     4.799489E-8
         8239.602     2.193104E-8
          8246.95     2.040866E-8
         8254.311     2.028506E-8
         8261.673     2.016173E-8
         8269.047     2.003854E-8
         8276.427     1.991556E-8
         8283.809     1.979288E-8
         8291.197     1.994896E-8
         8298.597     2.153573E-8
         8305.999     2.034530E-8
         8313.412     1.930408E-8
         8320.827     2.325599E-8
         8328.253     5.944777E-8
         8335.687     3.991391E-8
         8343.121     1.895799E-8
         8350.563     1.912191E-8
         8358.011     1.874129E-8
         8365.471     1.931101E-8
         8372.937     1.946395E-8
         8380.409     1.850111E-8
         8387.879     1.844972E-8
         8395.365     1.839790E-8
         8402.854     1.834574E-8
         8410.353     1.843268E-8
         8417.859     2.134131E-8
         8425.367     2.427589E-8
         8432.887     2.377083E-8
         8440.408     1.823840E-8
         8447.937     2.111030E-8
         8455.477     1.972321E-8
         8463.019     1.791480E-8
         8470.571     1.785921E-8
         8478.127     1.780326E-8
         8485.693     1.890365E-8
         8493.262     1.905486E-8
         8500.842     1.763278E-8
         8508.425     1.757289E-8
         8516.019     1.751257E-8
         8523.614     1.745188E-8
         8531.221     1.739075E-8
          8538.83     1.732925E-8
         8546.446     1.726733E-8
         8554.074     1.796978E-8
         8561.704     1.876037E-8
         8569.345     1.756456E-8
         8576.993     1.849419E-8
         8584.644     1.799094E-8
         8592.301     1.688702E-8
         8599.969     1.682215E-8
          8607.64     1.950590E-8
         8615.321     2.049171E-8
         8623.006     1.940517E-8
         8630.702     1.685928E-8
         8638.405     2.007745E-8
         8646.105     1.807890E-8
         8653.821     2.692757E-8
          8661.54     3.958989E-8
         8669.271     1.821434E-8
         8677.008     1.614207E-8
         8684.747     1.607025E-8
         8692.493     1.599802E-8
         8700.251     1.604552E-8
         8708.012     1.967198E-8
         8715.783     1.937282E-8
         8723.563     1.746964E-8
         8731.343     1.563038E-8
         8739.136     1.555556E-8
         8746.926     1.548041E-8
         8754.732     1.557073E-8
         8762.546     1.558881E-8
         8770.361     1.525214E-8
         8778.188     1.517517E-8
         8786.019     1.509781E-8
         8793.859     1.501997E-8
         8801.703     1.494173E-8
         8809.554     1.486305E-8
         8817.416     1.478389E-8
         8825.286     1.569002E-8
         8833.157     1.589336E-8
         8841.041     1.500057E-8
         8848.922     1.835605E-8
         8856.819     3.494499E-8
         8864.724     2.983991E-8
         8872.631     1.543013E-8
          8880.55     1.413466E-8
         8888.476     1.405144E-8
         8896.403     1.636648E-8
         8904.338     1.599198E-8
          8912.28     1.379920E-8
         8920.234     1.371414E-8
         8928.195     1.362862E-8
         8936.159     1.379592E-8
         8944.135     1.369584E-8
         8952.117     1.343593E-8
         8960.097     1.359156E-8
         8968.094     1.324952E-8
         8976.093     1.309977E-8
         8984.104     1.300914E-8
         8992.122     1.323450E-8
         9000.143     1.435278E-8
         9008.175     1.680089E-8
         9016.205     3.753222E-8
         9024.252     4.212161E-8
         9032.306     2.741247E-8
         9040.362     1.271894E-8
         9048.431     1.354643E-8
         9056.506     1.272262E-8
         9064.579     1.214983E-8
         9072.669     1.348167E-8
         9080.761     1.685110E-8
         9088.865     1.248329E-8
         9096.978     1.367607E-8
         9105.092     2.190184E-8
         9113.218     2.545396E-8
         9121.341     1.715432E-8
         9129.481     1.201764E-8
          9137.63     1.141509E-8
          9145.78     1.126510E-8
         9153.942     1.174541E-8
         9162.112     1.221634E-8
         9170.284     1.099110E-8
         9178.464     1.089891E-8
         9186.655     1.080622E-8
         9194.849     1.222120E-8
         9203.056     1.276054E-8
         9211.264     1.052555E-8
         9219.485     1.043105E-8
         9227.708     1.033615E-8
         9235.938     1.024079E-8
         9244.182     1.014492E-8
         9252.427     1.004826E-8
         9260.685     9.950178E-9
         9268.949     9.851662E-9
         9277.217     1.125749E-8
         9285.492     1.058374E-8
         9293.779     1.183275E-8
         9302.068     1.441034E-8
          9310.37     1.048796E-8
         9318.675     1.180816E-8
         9326.991     9.978765E-9
         9335.315     1.114981E-8
         9343.637     1.452087E-8
         9351.977     1.717883E-8
         9360.317     1.667108E-8
         9368.672     1.431455E-8
         9377.033     1.837941E-8
         9385.396     1.378211E-8
         9393.768     8.320933E-9
         9402.152     8.255463E-9
         9410.538     8.283797E-9
         9418.937     8.021821E-9
         9427.338     9.599376E-9
         9435.752     8.760831E-9
         9444.173     7.679758E-9
         9452.592     7.571360E-9
         9461.028     7.462366E-9
         9469.472     7.352907E-9
         9477.918     7.243029E-9
         9486.377     7.132610E-9
         9494.838     7.021785E-9
         9503.313     6.920420E-9
         9511.788     6.834670E-9
         9520.272     6.749021E-9
          9528.77     6.663436E-9
         9537.269     1.673331E-8
          9545.78     1.239962E-8
           9554.3     1.103679E-8
         9562.821     1.388065E-8
         9571.351     6.778587E-9
         9579.894     8.474962E-9
         9588.438     6.428966E-9
         9596.995     5.983269E-9
         9605.561     5.898773E-9
         9614.128     5.814460E-9
         9622.704     5.730262E-9
         9631.286     5.646211E-9
         9639.882     5.562234E-9
         9648.485     6.010583E-9
         9657.092     5.574336E-9
         9665.711     1.345329E-8
         9674.332     1.318177E-8
         9682.961     5.144502E-9
         9691.603     5.061340E-9
         9700.252     4.978317E-9
         9708.904     4.895482E-9
         9717.569     4.812744E-9
         9726.237     4.730196E-9
         9734.912     4.647802E-9
         9743.601     4.565498E-9
         9752.291     4.482860E-9
         9760.995     4.398856E-9
         9769.701     4.315123E-9
         9778.421     8.878998E-9
         9787.147     7.590280E-9
         9795.872     5.139837E-9
         9804.614     6.360231E-9
         9813.359     7.250871E-9
         9822.118     3.817161E-9
         9830.884     3.734931E-9
         9839.652     3.652975E-9
         9848.435     3.571196E-9
         9857.219     3.489702E-9
         9866.011     3.408442E-9
         9874.816     3.831660E-9
         9883.624     3.897958E-9
         9892.444     3.608237E-9
         9901.273     4.624434E-9
         9910.104     3.043720E-9
         9918.944     6.104576E-9
         9927.791     3.609903E-9
         9936.651     2.766806E-9
         9945.521     2.687677E-9
         9954.391     2.608863E-9
         9963.275     2.530243E-9
         9972.162     2.498708E-9
         9981.057     2.705028E-9
         9989.964     3.608507E-9
          9998.88     4.221888E-9
          10007.8     3.613803E-9
         10016.72     2.534717E-9
         10025.67     2.082764E-9
          10034.6     2.039575E-9
         10043.56     1.996577E-9
         10052.52     1.953923E-9
         10061.49     1.911571E-9
         10070.47     1.891372E-9
         10079.46     2.256181E-9
         10088.45     1.855105E-9
         10097.44     1.772618E-9
         10106.46     1.740648E-9
         10115.48     1.679823E-9
          10124.5     1.623392E-9
         10133.53     1.583444E-9
         10142.58     1.980614E-9
         10151.62     2.888069E-9
         10160.68     1.509436E-9
         10169.74     2.042013E-9
         10178.81     1.461266E-9
          10187.9     1.472952E-9
         10196.99     1.463128E-9
         10206.08     1.583860E-9
         10215.19     1.430984E-9
         10224.31     1.200815E-9
         10233.43     1.914794E-9
         10242.56     2.706004E-9
         10251.69     1.092166E-9
         10260.85     1.056540E-9
           10270.     1.021279E-9
         10279.16     1.006910E-9
         10288.33    9.733836E-10
         10297.51     1.067004E-9
          10306.7    9.444984E-10
         10315.89    8.643126E-10
          10325.1    8.280596E-10
          10334.3    7.834079E-10
         10343.53    8.795666E-10
         10352.76    9.709871E-10
         10361.99    6.863196E-10
         10371.25    6.545926E-10
          10380.5    6.267853E-10
         10389.76    6.583532E-10
         10399.02    5.677883E-10
          10408.3    6.744547E-10
         10417.59    5.402850E-10
         10426.89    5.710708E-10
         10436.19    4.938039E-10
         10445.49    4.130250E-10
         10454.82    4.243439E-10
         10464.15    5.431064E-10
         10473.48    5.337931E-10
         10482.82    3.003228E-10
         10492.17    2.730127E-10
         10501.54    2.495220E-10
         10510.91    2.440276E-10
         10520.29    2.385818E-10
         10529.67    2.331863E-10
         10539.07    2.278335E-10
         10548.47    2.225369E-10
         10557.88    3.853725E-10
         10567.31    2.681221E-10
         10576.73    2.069412E-10
         10586.17    4.019000E-10
         10595.61    3.356170E-10
         10605.06    1.918057E-10
         10614.53    1.868553E-10
           10624.    1.819630E-10
         10633.48    1.771211E-10
         10642.96    1.782512E-10
         10652.45    1.855884E-10
         10661.97    1.734535E-10
         10671.48    1.582636E-10
         10680.99    1.536800E-10
         10690.53    1.491433E-10
         10700.07    1.446643E-10
         10709.61    1.402375E-10
         10719.16    1.531492E-10
         10728.72    1.338712E-10
         10738.31    1.583914E-10
         10747.88    5.945502E-10
         10757.47    3.261950E-10
         10767.08    1.387544E-10
         10776.67    1.107264E-10
         10786.29    1.450992E-10
         10795.91    1.267756E-10
         10805.54    1.051878E-10
         10815.18    1.003117E-10
         10824.83    1.855243E-10
         10834.49    1.991383E-10
         10844.17    9.439585E-11
         10853.84    8.021713E-11
         10863.52    7.665079E-11
         10873.21    7.313993E-11
         10882.91    9.720715E-11
         10892.63    1.361499E-10
         10902.35    8.407866E-11
         10912.07    9.822897E-11
         10921.81    6.636999E-11
         10931.54    5.323820E-11
         10941.31    5.011413E-11
         10951.07    4.705065E-11
         10960.83    4.404380E-11
         10970.62    4.109025E-11
         10980.39    3.820066E-11
          10990.2    3.551340E-11
           11000.    3.958060E-11
