#  Table pcf300wsys.tab  Mon 12:21:08 02-Jun-97

#      WAVELENGTH      THROUGHPUT
#       angstroms                

            2220.    1.669191E-11
         2221.779     2.733900E-9
         2223.557     5.483678E-9
         2225.339     8.274488E-9
         2227.122     1.110236E-8
         2228.904     1.396429E-8
          2230.69     2.186861E-8
         2232.476     3.786469E-8
         2234.265     5.407985E-8
         2236.054     7.049288E-8
         2237.846     8.712712E-8
         2239.636     1.039493E-7
         2241.431     1.259063E-7
         2243.227     1.493915E-7
         2245.023     1.731448E-7
         2246.821     1.971897E-7
          2248.62     2.215210E-7
         2250.421     2.640480E-7
         2252.225     3.663338E-7
         2254.027     4.696174E-7
         2255.833     5.742803E-7
          2257.64     6.801027E-7
         2259.448     7.871602E-7
         2261.258     9.797245E-7
          2263.07     1.211748E-6
         2264.881     1.446070E-6
         2266.696     1.683395E-6
          2268.51     1.923195E-6
         2270.327     2.235054E-6
         2272.146     2.868829E-6
         2273.966     3.509262E-6
         2275.786     4.156631E-6
         2277.609     4.811048E-6
         2279.434     5.472987E-6
         2281.259     6.478266E-6
         2283.087     7.647413E-6
         2284.915     8.828165E-6
         2286.744     1.002135E-5
         2288.576     1.122717E-5
         2290.411     1.274309E-5
         2292.243     1.530239E-5
          2294.08     1.789155E-5
         2295.917     2.050553E-5
         2297.755     2.315286E-5
         2299.597     2.583096E-5
         2301.438     2.962491E-5
         2303.281     3.376643E-5
         2305.126     3.795499E-5
         2306.971     4.218130E-5
         2308.821     4.646069E-5
         2310.669     5.199903E-5
          2312.52     5.975831E-5
         2314.371     6.759656E-5
         2316.226     7.552140E-5
         2318.081     8.352171E-5
         2319.938     9.160835E-5
         2321.796     1.020719E-4
         2323.655     1.127198E-4
         2325.515     1.234734E-4
         2327.379     1.343403E-4
         2329.242     1.453080E-4
         2331.107     1.602017E-4
         2332.975     1.778817E-4
         2334.842     1.957077E-4
         2336.713     2.137316E-4
         2338.585     2.319309E-4
         2340.458     2.507003E-4
         2342.332     2.709222E-4
         2344.208     2.913332E-4
         2346.085     3.119370E-4
         2347.966     3.327586E-4
         2349.846     3.537446E-4
         2351.728     3.848395E-4
         2353.611     4.171080E-4
         2355.495     4.496750E-4
         2357.383     4.825545E-4
         2359.271     5.157352E-4
         2361.159     5.535493E-4
         2363.052     5.945226E-4
         2364.944     6.358259E-4
         2366.839     6.775249E-4
         2368.734     7.195556E-4
         2370.632     7.652710E-4
         2372.529     8.179127E-4
          2374.43     8.710737E-4
         2376.332     9.246955E-4
         2378.234     9.787028E-4
         2380.139     0.001033769
         2382.047     0.001096087
         2383.953     0.001158834
         2385.863     0.001222195
         2387.775      0.00128607
         2389.685     0.001350384
           2391.6     0.001425364
         2393.515     0.001502884
         2395.433     0.001581083
         2397.351     0.001659846
         2399.271     0.001739243
         2401.192     0.001822574
         2403.116      0.00190865
         2405.042      0.00199539
         2406.967     0.002082741
         2408.895      0.00217077
         2410.823     0.002263843
         2412.754     0.002363539
         2414.689     0.002464133
         2416.621      0.00256526
         2418.557     0.002667279
         2420.494     0.002771161
         2422.432     0.002879196
         2424.373     0.002988108
         2426.316     0.003097804
         2428.257     0.003208136
         2430.203     0.003320483
         2432.149     0.003442692
         2434.096     0.003565746
         2436.047     0.003689771
         2437.997     0.003814585
         2439.949     0.003940267
         2441.903     0.004066399
         2443.861     0.004193555
         2445.817      0.00432132
         2447.777     0.004450127
         2449.737     0.004579724
         2451.698     0.004716198
         2453.663     0.004854602
         2455.627     0.004993856
         2457.594     0.005134031
         2459.563     0.005275235
         2461.531     0.005412153
         2463.503      0.00554872
         2465.477     0.005686168
         2467.451     0.005824412
         2469.427     0.005963556
         2471.406     0.006111363
         2473.384      0.00626304
         2475.367        0.006416
         2477.349     0.006569739
         2479.333     0.006724447
         2481.318     0.006872666
         2483.306     0.007018112
         2485.295     0.007164364
         2487.286     0.007311604
         2489.278     0.007459675
         2491.271     0.007614158
         2493.266     0.007772699
         2495.264     0.007932368
         2497.261     0.008092872
         2499.261     0.008254392
         2501.264     0.008406618
         2503.265     0.008553458
         2505.271     0.008701392
         2507.277     0.008850086
         2509.286     0.008999785
         2511.295     0.009156954
         2513.308     0.009318867
         2515.319     0.009481542
         2517.336     0.009645517
          2519.35      0.00981014
         2521.369     0.009961116
         2523.388      0.01010582
         2525.408      0.01025135
         2527.432      0.01039784
         2529.457      0.01054516
         2531.481      0.01069968
          2533.51      0.01085775
         2535.538      0.01101662
          2537.57      0.01117138
         2539.602      0.01131341
         2541.637      0.01143744
          2543.67      0.01155711
         2545.708      0.01167726
         2547.749      0.01179774
         2549.787      0.01191836
          2551.83      0.01204864
         2553.875      0.01218038
         2555.918      0.01231226
         2557.967      0.01244469
         2560.016      0.01257726
         2562.065      0.01268428
         2564.117       0.0127917
         2566.171      0.01289932
         2568.227      0.01300727
         2570.283       0.0131164
         2572.343      0.01323226
         2574.401      0.01334824
         2576.464      0.01346466
         2578.527      0.01358128
         2580.593      0.01369169
          2582.66      0.01378593
         2584.729      0.01388043
         2586.797      0.01397501
         2588.872      0.01406998
         2590.943      0.01416556
         2593.019       0.0142622
         2595.095        0.014359
         2597.173      0.01445599
         2599.254      0.01455325
         2601.337      0.01464284
         2603.419      0.01472809
         2605.505      0.01481362
          2607.59      0.01489919
         2609.679      0.01498502
          2611.77      0.01507092
         2613.862       0.0151569
         2615.955      0.01524304
         2618.049      0.01532933
         2620.148      0.01541534
         2622.245      0.01549414
         2624.346      0.01557317
         2626.448      0.01565227
         2628.551       0.0157315
         2630.657      0.01580943
         2632.765      0.01588425
         2634.872      0.01595907
         2636.983      0.01603409
         2639.094      0.01610917
         2641.209      0.01617865
         2643.324      0.01624383
          2645.44      0.01630908
         2647.559       0.0163744
          2649.68      0.01643981
           2651.8       0.0164975
         2653.927      0.01655398
         2656.052       0.0166104
         2658.178      0.01666684
         2660.307      0.01672259
         2662.439      0.01677404
         2664.571      0.01682545
         2666.706      0.01687691
         2668.841      0.01692833
         2670.978      0.01697937
         2673.117      0.01702994
         2675.259      0.01708055
         2677.401      0.01713112
         2679.545      0.01718167
         2681.692      0.01723276
         2683.838      0.01728391
         2685.988      0.01733512
          2688.14      0.01738632
         2690.293      0.01743948
         2692.447      0.01750542
         2694.603      0.01757141
         2696.761      0.01763744
         2698.923      0.01770359
         2701.084       0.0177773
         2703.247      0.01785878
         2705.412      0.01794052
         2707.578       0.0180225
         2709.747      0.01810479
         2711.919      0.01818417
          2714.09       0.0182633
         2716.263      0.01834268
         2718.438      0.01842228
         2720.617      0.01849804
         2722.795       0.0185635
         2724.977      0.01862914
         2727.157      0.01869483
         2729.343      0.01876074
         2731.528      0.01882312
         2733.715      0.01888405
         2735.906      0.01894512
         2738.098       0.0190063
         2740.289      0.01906688
         2742.485      0.01912359
         2744.681      0.01918034
         2746.878      0.01923716
         2749.079       0.0192941
         2751.279      0.01932721
         2753.485      0.01934322
          2755.69      0.01935923
         2757.897      0.01937526
         2760.105      0.01939101
         2762.317      0.01940078
          2764.53      0.01941056
         2766.744      0.01942033
         2768.959      0.01943011
         2771.176      0.01943879
         2773.395       0.0194465
         2775.619      0.01945421
          2777.84      0.01946191
         2780.066      0.01946943
         2782.292      0.01947046
          2784.52      0.01947148
         2786.751      0.01947248
         2788.984      0.01947347
         2791.216      0.01947584
         2793.452      0.01947935
         2795.689      0.01948286
         2797.927      0.01948635
         2800.169      0.01948951
          2802.41      0.01948847
         2804.656      0.01948742
         2806.901      0.01948635
         2809.151      0.01948527
           2811.4      0.01948219
         2813.653      0.01947789
         2815.904      0.01947357
          2818.16      0.01946924
         2820.419      0.01946469
         2822.677      0.01945933
         2824.937      0.01945395
         2827.201      0.01944854
         2829.463      0.01944312
         2831.732      0.01943949
         2833.999      0.01943642
         2836.269      0.01943333
          2838.54      0.01943022
         2840.814       0.0194286
         2843.089      0.01942966
         2845.367      0.01943071
         2847.645      0.01943176
         2849.926       0.0194328
         2852.208      0.01942578
         2854.491      0.01941846
         2856.777      0.01941112
         2859.068      0.01940375
         2861.357      0.01940081
         2863.648      0.01940091
         2865.943        0.019401
         2868.238      0.01940108
         2870.534      0.01939924
         2872.833      0.01939104
         2875.135      0.01938281
         2877.436      0.01937458
         2879.741      0.01936631
         2882.047      0.01936148
         2884.356      0.01935709
         2886.666      0.01935267
         2888.979      0.01934824
         2891.291      0.01933807
         2893.609      0.01932331
         2895.924      0.01930855
         2898.245      0.01929373
         2900.566      0.01927076
          2902.89      0.01922249
         2905.214      0.01917426
         2907.541      0.01912601
         2909.869      0.01907776
           2912.2       0.0190374
         2914.532      0.01899752
         2916.867       0.0189576
         2919.203      0.01891769
         2921.542      0.01887301
          2923.88      0.01882595
         2926.223      0.01877882
         2928.568      0.01873169
         2930.911      0.01868361
          2933.26      0.01863385
         2935.608      0.01858414
         2937.959      0.01853442
         2940.313      0.01848537
         2942.669      0.01844085
         2945.024       0.0183964
         2947.384      0.01835187
         2949.744      0.01830736
         2952.107       0.0182599
         2954.471      0.01821212
         2956.838      0.01816429
         2959.204      0.01811654
         2961.575      0.01807004
         2963.947      0.01802422
         2966.322      0.01797837
         2968.697      0.01793255
         2971.074      0.01788282
         2973.453      0.01782838
         2975.837      0.01777388
         2978.219       0.0177195
         2980.605      0.01766686
          2982.99      0.01761959
         2985.382      0.01757222
         2987.772      0.01752493
         2990.165      0.01747725
         2992.559      0.01742442
         2994.957      0.01737156
         2997.355      0.01731875
         2999.755      0.01726596
         3002.159      0.01721336
         3004.563      0.01716083
         3006.969      0.01710832
         3009.376      0.01705582
          3011.79      0.01700385
         3014.199      0.01695221
         3016.615      0.01690051
          3019.03      0.01684885
         3021.448      0.01679815
         3023.869      0.01674807
          3026.29      0.01669802
         3028.713      0.01664799
          3031.14      0.01659539
         3033.567      0.01653997
         3035.998      0.01648454
         3038.427      0.01642921
         3040.864      0.01637413
         3043.297      0.01631978
         3045.735      0.01626539
         3048.174      0.01621106
         3050.617      0.01615574
         3053.059       0.0160976
         3055.504      0.01603949
         3057.951      0.01598142
         3060.401      0.01592365
         3062.852      0.01586753
         3065.306       0.0158114
         3067.759      0.01575538
         3070.217      0.01569898
         3072.677      0.01563924
         3075.137      0.01557958
           3077.6      0.01551996
         3080.064      0.01546037
          3082.53       0.0154005
            3085.      0.01534064
          3087.47      0.01528085
         3089.944      0.01522108
         3092.418      0.01515943
         3094.895      0.01509779
         3097.373      0.01503619
         3099.853      0.01497465
         3102.339      0.01495628
         3104.821      0.01494057
         3107.309      0.01492475
         3109.797      0.01490883
         3112.287       0.0148882
         3114.781      0.01486702
         3117.277      0.01484573
         3119.771      0.01482435
         3122.271      0.01479956
         3124.771      0.01477435
         3127.275      0.01474898
         3129.779       0.0147235
         3132.287      0.01469676
         3134.793      0.01466982
         3137.305      0.01464271
         3139.817      0.01461548
         3142.331      0.01459176
         3144.849      0.01456819
         3147.369      0.01454449
         3149.888       0.0145207
         3152.412      0.01448705
         3154.936       0.0144528
         3157.462       0.0144184
         3159.992      0.01438381
         3162.521      0.01435458
         3165.057      0.01432515
         3167.591      0.01429563
         3170.127      0.01426563
         3172.666       0.0142292
         3175.208      0.01419259
          3177.75      0.01415583
         3180.297      0.01411924
         3182.843      0.01408527
         3185.392      0.01405115
         3187.942      0.01401687
         3190.499      0.01398064
         3193.052      0.01393715
          3195.61      0.01389341
         3198.169      0.01384951
          3200.73      0.01380754
         3203.295      0.01377073
         3205.861      0.01373375
         3208.427      0.01369665
         3210.997      0.01365545
         3213.569      0.01360795
         3216.142      0.01356024
         3218.719      0.01351229
         3221.294      0.01346735
         3223.875      0.01342528
         3226.457      0.01338305
         3229.042       0.0133406
         3231.628      0.01329241
         3234.217      0.01324068
         3236.805       0.0131888
         3239.399      0.01313663
         3241.995      0.01308995
         3244.591      0.01304482
         3247.188       0.0129995
         3249.791      0.01295395
         3252.391      0.01289774
         3254.999      0.01284025
         3257.605      0.01278261
         3260.214      0.01272516
         3262.824      0.01267237
         3265.439      0.01261933
         3268.053      0.01256611
         3270.672      0.01251047
         3273.291      0.01244837
         3275.912      0.01238603
         3278.535      0.01232342
          3281.16      0.01226527
          3283.79      0.01221281
         3286.421      0.01216012
         3289.052      0.01210725
         3291.686      0.01204859
         3294.323      0.01198651
         3296.959      0.01192426
         3299.601      0.01186166
         3302.243      0.01180344
         3304.889      0.01174576
         3307.536      0.01168787
         3310.184      0.01162904
         3312.835      0.01156038
         3315.489       0.0114914
         3318.144      0.01142219
         3320.803      0.01135553
          3323.46      0.01129537
         3326.123      0.01123489
         3328.786       0.0111742
         3331.454      0.01110766
         3334.123      0.01103622
         3336.793      0.01096455
         3339.465      0.01089258
         3342.139      0.01083156
         3344.815      0.01077311
         3347.497      0.01071434
         3350.174      0.01065481
          3352.86      0.01058507
         3355.545      0.01051515
         3358.232      0.01044494
         3360.923      0.01037671
         3363.614      0.01031267
         3366.309      0.01024834
         3369.003      0.01018382
         3371.702      0.01011462
         3374.402      0.01004265
         3377.104     0.009970373
          3379.81     0.009897763
         3382.518     0.009840347
         3385.225     0.009783937
         3387.937      0.00972722
          3390.65     0.009660986
         3393.367     0.009564787
         3396.082     0.009468342
         3398.805     0.009371312
         3401.527     0.009291879
          3404.25     0.009226114
         3406.977     0.009160074
         3409.707     0.009093723
         3412.435      0.00903141
         3415.171     0.008969222
         3417.904     0.008906901
         3420.643     0.008843112
         3423.382      0.00877542
         3426.125     0.008707406
         3428.868     0.008639158
         3431.614     0.008574184
         3434.363     0.008511399
         3437.113     0.008448401
         3439.865      0.00838514
         3442.622     0.008317764
         3445.376     0.008250011
         3448.137     0.008181884
           3450.9     0.008115962
         3453.663     0.008054969
         3456.429     0.007993714
         3459.197     0.007932212
          3461.97     0.007868012
          3464.74     0.007802714
         3467.517     0.007737061
         3470.293     0.007671996
         3473.072     0.007613605
         3475.853     0.007554969
         3478.636      0.00749609
         3481.424     0.007434441
         3484.213     0.007370149
         3487.001     0.007305674
         3489.797       0.0072408
          3492.59     0.007183318
         3495.388     0.007126105
         3498.187     0.007068691
          3500.99     0.007009332
         3503.793     0.006946706
         3506.599     0.006883818
         3509.407     0.006820666
         3512.221     0.006763917
         3515.029     0.006708885
         3517.848     0.006653461
         3520.665     0.006596632
         3523.484     0.006535481
         3526.305     0.006474079
         3529.131     0.006412375
         3531.958      0.00635625
         3534.787     0.006302524
         3537.617      0.00624856
          3540.45     0.006193584
         3543.285     0.006134192
         3546.124     0.006074505
         3548.963     0.006014602
         3551.805     0.005960387
         3554.651      0.00590932
         3557.498     0.005858066
         3560.348      0.00580602
         3563.197      0.00574996
         3566.054     0.005693546
         3568.909     0.005636962
         3571.767     0.005583777
         3574.627     0.005532624
          3577.49     0.005481245
         3580.354     0.005429325
         3583.225     0.005374859
         3586.094     0.005320235
         3588.968     0.005265331
          3591.84     0.005213919
         3594.719     0.005164237
         3597.596     0.005114435
         3600.479     0.005063729
         3603.362     0.005009729
         3606.247     0.004955495
         3609.135     0.004901023
         3612.025     0.004851141
         3614.919     0.004803075
         3617.815       0.0047548
          3620.71     0.004705598
         3623.612     0.004653716
         3626.513     0.004601637
         3629.417     0.004549331
         3632.327     0.004501656
         3635.232     0.004455135
         3638.146     0.004408284
          3641.06      0.00436018
         3643.975     0.004309912
         3646.895     0.004259389
         3649.813     0.004208716
          3652.74     0.004162868
         3655.665     0.004117235
         3658.592     0.004071397
         3661.521     0.004023885
         3664.453     0.003974803
         3667.392     0.003925439
         3670.326      0.00387654
         3673.267     0.003832032
         3676.208     0.003787356
         3679.152     0.003742486
           3682.1     0.003695972
         3685.051      0.00364868
         3687.999     0.003601247
         3690.954      0.00355536
          3693.91     0.003513122
         3696.868       0.0034707
         3699.828      0.00342809
          3702.79     0.003383321
          3705.76     0.003338166
         3708.723     0.003292943
         3711.697      0.00324899
         3714.668     0.003206113
         3717.643     0.003163044
          3720.62     0.003119528
         3723.601     0.003074802
         3726.585     0.003029882
         3729.569     0.002984797
         3732.555     0.002941928
         3735.546     0.002899256
         3738.535     0.002856456
         3741.533     0.002812881
         3744.527     0.002768733
         3747.527     0.002724331
         3750.528     0.002680226
         3753.531     0.002638073
         3756.539     0.002595709
         3759.547     0.002553188
         3762.559     0.002509024
         3765.572     0.002464448
         3768.587     0.002419676
         3771.605     0.002376121
         3774.625     0.002333621
         3777.651     0.002290878
         3780.676     0.002247853
         3783.704     0.002204095
         3786.733     0.002160154
         3789.765     0.002116021
         3792.802     0.002073483
         3795.839     0.002030943
         3798.881     0.001988194
         3801.923     0.001944875
         3804.967     0.001901133
         3808.014     0.001857201
         3811.065      0.00180314
         3814.116     0.001730367
         3817.173     0.001657239
         3820.227     0.001583906
         3823.288     0.001510148
          3826.35     0.001436145
         3829.416     0.001361783
         3832.484     0.001320424
         3835.553     0.001286773
         3838.624     0.001252984
         3841.698      0.00121717
         3844.774     0.001179678
         3847.857     0.001141976
         3850.934     0.001106172
         3854.021     0.001074623
         3857.108     0.001042982
         3860.196     0.001011021
         3863.289     9.760730E-4
         3866.383     9.410033E-4
         3869.481     9.057650E-4
         3872.577     8.756522E-4
          3875.68     8.464289E-4
         3878.783     8.171040E-4
         3881.889     7.861502E-4
            3885.     7.540698E-4
         3888.113     7.218589E-4
         3891.224     6.921979E-4
         3894.342     6.664529E-4
          3897.46     6.406192E-4
         3900.583     6.143651E-4
         3903.704     5.867447E-4
         3906.834     5.589548E-4
         3909.963     5.310903E-4
         3913.094     5.088862E-4
         3916.227     4.866592E-4
         3919.365     4.643293E-4
         3922.501     4.413584E-4
         3925.646     4.181012E-4
         3928.788     3.947974E-4
         3931.936     3.748157E-4
         3935.084     3.569291E-4
         3938.237     3.389593E-4
         3941.391     3.208941E-4
         3944.547     3.027130E-4
         3947.707     2.844483E-4
         3950.868     2.673637E-4
         3954.032     2.534937E-4
           3957.2     2.395599E-4
         3960.367     2.256220E-4
          3963.54     2.118541E-4
         3966.716     1.980323E-4
         3969.892     1.841670E-4
         3973.071     1.738994E-4
         3976.252     1.637199E-4
         3979.441     1.534872E-4
         3982.625     1.435617E-4
         3985.816     1.336544E-4
         3989.008     1.237155E-4
         3992.202     1.156821E-4
         3995.399     1.084956E-4
           3998.6     1.012771E-4
         4001.802     9.418952E-5
         4005.009     8.720632E-5
         4008.213     8.022962E-5
         4011.427     7.414820E-5
         4014.637     6.921842E-5
         4017.854     6.427952E-5
         4021.071     5.947558E-5
         4024.293     5.493569E-5
         4027.515     5.039652E-5
          4030.74     4.616933E-5
         4033.968     4.299568E-5
         4037.202     3.981641E-5
         4040.431     3.668792E-5
          4043.67     3.383431E-5
         4046.908     3.098326E-5
         4050.149     2.817205E-5
         4053.392     2.620950E-5
          4056.64     2.424493E-5
          4059.89     2.227953E-5
         4063.141     2.053944E-5
         4066.395     1.880664E-5
         4069.651     1.707316E-5
          4072.91     1.584224E-5
         4076.173     1.467059E-5
         4079.437     1.349931E-5
         4082.704     1.244032E-5
         4085.975     1.140384E-5
         4089.247     1.036764E-5
         4092.523     9.586024E-6
         4095.798     8.881471E-6
         4099.082     8.175281E-6
         4102.365     7.539968E-6
         4105.649     6.931905E-6
         4108.937     6.323640E-6
         4112.227     5.834460E-6
          4115.52     5.402049E-6
          4118.82     4.968987E-6
         4122.118     4.574111E-6
         4125.418     4.200136E-6
         4128.722     3.826063E-6
          4132.03     3.536087E-6
         4135.339     3.299338E-6
         4138.652     3.062389E-6
         4141.966     2.837212E-6
         4145.283     2.619973E-6
         4148.602     2.402744E-6
         4151.924     2.219607E-6
         4155.251     2.061203E-6
         4158.578     1.902884E-6
         4161.908     1.778418E-6
         4165.243     1.679130E-6
         4168.578     1.579911E-6
         4171.916     1.469333E-6
         4175.261     1.350162E-6
           4178.6     1.231303E-6
         4181.951     1.146676E-6
         4185.299     1.086940E-6
          4188.65     1.027204E-6
         4192.004     9.556275E-7
         4195.361     8.760720E-7
         4198.725     7.964154E-7
         4202.087     7.420130E-7
         4205.452     7.029073E-7
         4208.822     6.636791E-7
         4212.189     6.244079E-7
         4215.567     5.849565E-7
          4218.94     5.454852E-7
         4222.321     5.058637E-7
         4225.702     4.661693E-7
         4229.085     4.263756E-7
         4232.474     4.011571E-7
         4235.863     3.813319E-7
         4239.255     3.614596E-7
         4242.652     3.415199E-7
         4246.049     3.215471E-7
         4249.449     3.015247E-7
         4252.852     2.814523E-7
         4256.259     2.613187E-7
         4259.667     2.411497E-7
         4263.078     2.393499E-7
         4266.494     2.395383E-7
         4269.911     2.397267E-7
          4273.33     2.199448E-7
         4276.754     1.995630E-7
         4280.178     1.802196E-7
         4283.608     1.803592E-7
         4287.038     1.804989E-7
         4290.471     1.806388E-7
         4293.909     1.807785E-7
         4297.344     1.809182E-7
          4300.79     1.762898E-7
         4304.234     1.556238E-7
         4307.681     1.349086E-7
          4311.13     1.209816E-7
         4314.582     1.210737E-7
         4318.039     1.211660E-7
         4321.497     1.212582E-7
         4324.959     1.213506E-7
         4328.422     1.214429E-7
         4331.889     1.215353E-7
         4335.359     1.216277E-7
         4338.829     1.217201E-7
         4342.305     1.218118E-7
         4345.785     1.219030E-7
         4349.265     1.219943E-7
         4352.747     1.220846E-7
         4356.232     1.221746E-7
         4359.723     1.222649E-7
         4363.216     1.223562E-7
         4366.708     1.224475E-7
         4370.207     1.225391E-7
         4373.706     1.226293E-7
         4377.208     1.227196E-7
         4380.716     1.228101E-7
         4384.223     1.229005E-7
         4387.736     1.229910E-7
          4391.25     1.230810E-7
         4394.766     1.231702E-7
         4398.288     1.232595E-7
         4401.809     1.233494E-7
         4405.336     1.234401E-7
         4408.864     1.235308E-7
         4412.394     1.236207E-7
         4415.927     1.237101E-7
         4419.463     1.237996E-7
         4423.004     1.238893E-7
         4426.544     1.239789E-7
         4430.093     1.240687E-7
          4433.64     1.241570E-7
          4437.19     1.242454E-7
         4440.746     1.243342E-7
         4444.299     1.244239E-7
          4447.86     1.245139E-7
         4451.424     1.246033E-7
         4454.989     1.246919E-7
         4458.556     1.247806E-7
         4462.126     1.248693E-7
         4465.702     1.249581E-7
          4469.28     1.250471E-7
         4472.859     1.251359E-7
          4476.44     1.252248E-7
         4480.024     1.253139E-7
         4483.614     1.254030E-7
         4487.205     1.254921E-7
           4490.8     1.255814E-7
         4494.396     1.256705E-7
         4497.995     1.257598E-7
         4501.597     1.260107E-7
         4505.201     1.264651E-7
         4508.809     1.269199E-7
         4512.424     1.273749E-7
         4516.037     1.278293E-7
         4519.653     1.282842E-7
         4523.272     1.287406E-7
         4526.894     1.291975E-7
         4530.521     1.296552E-7
         4534.147     1.301114E-7
         4537.782     1.305690E-7
         4541.416     1.310265E-7
         4545.052     1.314843E-7
         4548.694     1.319429E-7
         4552.334     1.324022E-7
         4555.984     1.328634E-7
         4559.632     1.333245E-7
         4563.283     1.337847E-7
         4566.938     1.342452E-7
         4570.594     1.347062E-7
         4574.259     1.351681E-7
         4577.922     1.356299E-7
         4581.587     1.360921E-7
         4585.256     1.365548E-7
         4588.928     1.370180E-7
         4592.604     1.374818E-7
         4596.282     1.379459E-7
         4599.965     1.384107E-7
         4603.648     1.388756E-7
         4607.334     1.393409E-7
         4611.024     1.398068E-7
         4614.716     1.402731E-7
         4618.411     1.407398E-7
         4622.112     1.412064E-7
         4625.813     1.416724E-7
          4629.52     1.421392E-7
         4633.227     1.196009E-7
         4636.937     9.345378E-8
         4640.649     7.177292E-8
         4644.365     7.200785E-8
         4648.089     7.224332E-8
         4651.812     7.247871E-8
         4655.536     7.271426E-8
         4659.264     7.295007E-8
         4662.995     7.318543E-8
         4666.734     7.342121E-8
         4670.468     7.365682E-8
          4674.21     7.389371E-8
         4677.953     7.413067E-8
         4681.699     7.436785E-8
         4685.453     7.460554E-8
         4689.202     7.484306E-8
         4692.959     7.508039E-8
         4696.717     7.531762E-8
         4700.478     7.555518E-8
         4704.242     7.579367E-8
         4708.009     7.603246E-8
         4711.784     7.627137E-8
         4715.557     7.650976E-8
         4719.333     7.674839E-8
         4723.111     7.698786E-8
         4726.894     7.722776E-8
         4730.678     7.746770E-8
         4734.469     7.770737E-8
         4738.263     7.794727E-8
         4742.057     7.818770E-8
         4745.854     7.842877E-8
         4749.654     7.867003E-8
          4753.46     7.891092E-8
         4757.266     7.915172E-8
         4761.078     7.939321E-8
          4764.89     7.963537E-8
         4768.706     7.987779E-8
         4772.524     8.012046E-8
         4776.348     8.036358E-8
         4780.175     8.060687E-8
            4784.     8.084915E-8
         4787.834     8.109200E-8
         4791.667     8.133529E-8
         4795.504     8.157937E-8
          4799.35     8.182401E-8
          4803.19     8.206835E-8
         4807.039     8.231327E-8
         4810.888     7.522942E-8
          4814.74     4.355210E-8
         4818.595     1.166630E-8
         4822.454     2.043669E-8
          4826.32     5.279894E-8
         4830.185     8.223418E-8
         4834.053     4.997550E-8
         4837.923     1.750161E-8
         4841.797              0.
         4845.677              0.
         4849.557              0.
         4853.443              0.
          4857.33              0.
         4861.219              0.
         4865.114              0.
          4869.01              0.
         4872.908              0.
         4876.813              0.
         4880.718              0.
         4884.626              0.
         4888.538              0.
         4892.455              0.
         4896.375              0.
         4900.293              0.
         4904.219              0.
         4908.146              0.
         4912.079              0.
          4916.01              0.
         4919.949              0.
         4923.891              0.
         4927.833              0.
         4931.779              0.
         4935.731              0.
         4939.681              0.
         4943.636              0.
         4947.597              0.
         4951.562              0.
         4955.527              0.
         4959.495              0.
         4963.469              0.
         4967.446              0.
         4971.421              0.
         4975.404              0.
         4979.388              0.
         4983.375              0.
         4987.368              0.
         4991.365              0.
         4995.359              0.
         4999.361              0.
         5003.364              0.
         5007.371              0.
         5011.383              0.
         5015.399              0.
         5019.415              0.
         5023.434              0.
         5027.457              0.
         5031.482              0.
         5035.514              0.
         5039.548              0.
         5043.584              0.
         5047.623              0.
         5051.664              0.
         5055.709              0.
          5059.76              0.
         5063.814              0.
         5067.869              0.
         5071.927              0.
         5075.988              0.
         5080.053              0.
         5084.121              0.
         5088.195              0.
         5092.271              0.
         5096.349              0.
          5100.43     1.399203E-9
         5104.514     1.472873E-8
         5108.602     2.815246E-8
         5112.695     3.271629E-8
         5116.792     3.264251E-8
         5120.889     3.256765E-8
         5124.989     3.249168E-8
         5129.096     3.241455E-8
           5133.2     3.233603E-8
         5137.313     3.225619E-8
          5141.43     3.217536E-8
         5145.546     3.209373E-8
         5149.667     3.201096E-8
         5153.793     3.192694E-8
         5157.917     3.184190E-8
          5162.05     3.175560E-8
         5166.186     3.166814E-8
         5170.323     3.157960E-8
         5174.463     3.148985E-8
         5178.606     3.139894E-8
         5182.756     3.130657E-8
         5186.906     3.121296E-8
         5191.059     3.111827E-8
         5195.219     3.102258E-8
         5199.378     3.092579E-8
         5203.542     3.096417E-8
         5207.711     3.102636E-8
         5211.884     3.108858E-8
         5216.055     3.115078E-8
         5220.234     3.121295E-8
         5224.414     3.127466E-8
         5228.598     3.133626E-8
         5232.787     3.139776E-8
          5236.98     3.145912E-8
         5241.173     3.152036E-8
          5245.37     3.158150E-8
          5249.57     3.164253E-8
         5253.774     3.170382E-8
         5257.984     3.176508E-8
         5262.197     3.182578E-8
         5266.411     3.188591E-8
         5270.627     3.194600E-8
         5274.848     3.200636E-8
         5279.071     3.206661E-8
         5283.302     3.212676E-8
         5287.535     3.218678E-8
         5291.769     3.224649E-8
         5296.006     3.230586E-8
         5300.247     3.235720E-8
         5304.491     3.227967E-8
         5308.738     3.220115E-8
         5312.992     3.212186E-8
          5317.25     3.204169E-8
         5321.507     3.196029E-8
         5325.768     3.187735E-8
         5330.033     3.179339E-8
         5334.301     3.170882E-8
         5338.575     3.162319E-8
         5342.853     3.153654E-8
         5347.131     3.144893E-8
         5351.413     3.136017E-8
         5355.697     3.127011E-8
         5359.986     3.117902E-8
         5364.281     3.108683E-8
         5368.579     3.099363E-8
         5372.878     3.089919E-8
          5377.18     3.080359E-8
         5381.489     3.070703E-8
         5385.795     3.060981E-8
          5390.11     3.051141E-8
         5394.429     3.041156E-8
         5398.749     3.031073E-8
         5403.072     3.023258E-8
         5407.398     3.016323E-8
         5411.731     3.009301E-8
         5416.064     3.002203E-8
         5420.404     2.995010E-8
         5424.745     2.987695E-8
         5429.088     2.980295E-8
         5433.436     2.972809E-8
         5437.789     2.965233E-8
         5442.141     2.957581E-8
         5446.501     2.949832E-8
         5450.865     2.941987E-8
          5455.23     2.934030E-8
         5459.598     2.925985E-8
         5463.973     2.917851E-8
         5468.351     2.909630E-8
         5472.727     2.901311E-8
         5477.112     2.892878E-8
         5481.498     2.884362E-8
         5485.887     2.875756E-8
         5490.283     2.867056E-8
         5494.682     2.858269E-8
         5499.082     2.849399E-8
         5503.485     2.840777E-8
         5507.892     2.832162E-8
         5512.302     2.823463E-8
         5516.719     2.814674E-8
          5521.14     2.805804E-8
         5525.561     2.796865E-8
         5529.985     2.787845E-8
         5534.413     2.778704E-8
         5538.844     2.769483E-8
          5543.28     2.760152E-8
         5547.721     2.750725E-8
         5552.167     2.741230E-8
         5556.612     2.731674E-8
         5561.062     2.722029E-8
         5565.515     2.712278E-8
         5569.971     2.702444E-8
         5574.434     2.692523E-8
         5578.901     2.682518E-8
         5583.368     2.672409E-8
         5587.839     2.662210E-8
         5592.313     2.651923E-8
         5596.792     2.641552E-8
         5601.276     2.630391E-8
         5605.764     2.617405E-8
         5610.253     2.604375E-8
         5614.745     2.591292E-8
         5619.241     2.578155E-8
         5623.741     2.564936E-8
         5628.247     2.551649E-8
         5632.756     2.538302E-8
         5637.267     2.524906E-8
         5641.781     2.511460E-8
         5646.301     2.497954E-8
         5650.819     2.484413E-8
         5655.347     2.470799E-8
         5659.879     2.457129E-8
         5664.411     2.443408E-8
         5668.947     2.429634E-8
         5673.489     2.415772E-8
         5678.035     2.401851E-8
         5682.576     2.387904E-8
         5687.129     2.373875E-8
         5691.686     2.359791E-8
         5696.243     2.345661E-8
         5700.805     2.331474E-8
         5705.373     2.317219E-8
         5709.938     2.302929E-8
         5714.513     2.288570E-8
         5719.092     2.274157E-8
         5723.671     2.259695E-8
         5728.254     2.245180E-8
         5732.845     2.230598E-8
         5737.438     2.215964E-8
         5742.029     2.201276E-8
          5746.63     2.186493E-8
         5751.231     2.171674E-8
         5755.837     2.156824E-8
         5760.449     2.141910E-8
         5765.064     2.126940E-8
         5769.681     2.111926E-8
         5774.301     2.096826E-8
         5778.924     2.081670E-8
         5783.552     2.066473E-8
         5788.186     2.051216E-8
         5792.824     2.035888E-8
         5797.462     2.020508E-8
         5802.105     2.011580E-8
          5806.75     2.010479E-8
           5811.4     2.009358E-8
         5816.057     2.008204E-8
         5820.717     2.007044E-8
         5825.378     2.005897E-8
         5830.042     2.004739E-8
         5834.711     2.003548E-8
         5839.383     2.002346E-8
         5844.059     2.001152E-8
         5848.742     1.999949E-8
         5853.428     1.998711E-8
         5858.115     1.997454E-8
         5862.806     1.996204E-8
           5867.5     1.994954E-8
         5872.199     1.993692E-8
         5876.904     1.992417E-8
         5881.613     1.991130E-8
         5886.323     1.989832E-8
         5891.036     1.988524E-8
         5895.756     1.987202E-8
         5900.474     1.986125E-8
         5905.202     1.987316E-8
         5909.934     1.988503E-8
         5914.666     1.989712E-8
         5919.402     1.990918E-8
         5924.145     1.992095E-8
         5928.885     1.993262E-8
         5933.636     1.994449E-8
         5938.391     1.995639E-8
         5943.146     1.996823E-8
         5947.905     1.998003E-8
         5952.667     1.999178E-8
         5957.437     2.000350E-8
         5962.208     2.001531E-8
         5966.981     2.002723E-8
         5971.763     2.003900E-8
         5976.544     2.005054E-8
          5981.33     2.006214E-8
         5986.123     2.007395E-8
         5990.919     2.008572E-8
         5995.713     2.009735E-8
         6000.518     2.010071E-8
         6005.322     2.003567E-8
         6010.131     1.997057E-8
         6014.947     1.990558E-8
         6019.767     1.984051E-8
         6024.583     1.977544E-8
         6029.411     1.971021E-8
         6034.239     1.964489E-8
          6039.07     1.957950E-8
          6043.91     1.951395E-8
         6048.752     1.944832E-8
         6053.596     1.938285E-8
         6058.443     1.931737E-8
         6063.294     1.925154E-8
         6068.149     1.918551E-8
         6073.012     1.911956E-8
         6077.878     1.905367E-8
         6082.745     1.898771E-8
         6087.615     1.892166E-8
          6092.49     1.885553E-8
         6097.368     1.878930E-8
          6102.25     1.874016E-8
          6107.14     1.871103E-8
         6112.034     1.868182E-8
         6116.928     1.865254E-8
         6121.826     1.862324E-8
         6126.728     1.859395E-8
         6131.634     1.856457E-8
         6136.547     1.853507E-8
         6141.464     1.850563E-8
         6146.381     1.847642E-8
         6151.303     1.844707E-8
         6156.229     1.841740E-8
         6161.158     1.838770E-8
         6166.095     1.835800E-8
         6171.036     1.832823E-8
         6175.977     1.829838E-8
         6180.922     1.826849E-8
         6185.875     1.823859E-8
         6190.825     1.820869E-8
         6195.786     1.817861E-8
          6200.75     1.815405E-8
         6205.715     1.816063E-8
         6210.685     1.816715E-8
         6215.657     1.817337E-8
         6220.635     1.817963E-8
         6225.619     1.818620E-8
         6230.607     1.819272E-8
         6235.597     1.819890E-8
         6240.589     1.820513E-8
         6245.586     1.821168E-8
         6250.591     1.821818E-8
         6255.593     1.822436E-8
         6260.605     1.823052E-8
         6265.622     1.823649E-8
         6270.639     1.824248E-8
          6275.66     1.824863E-8
         6280.688     1.825476E-8
         6285.721     1.826073E-8
         6290.751     1.826668E-8
         6295.792     1.827254E-8
         6300.833     1.827268E-8
         6305.878     1.824382E-8
         6310.931     1.821484E-8
         6315.987     1.818553E-8
         6321.045     1.815623E-8
         6326.106     1.812694E-8
         6331.172     1.809760E-8
         6336.242     1.806814E-8
         6341.319     1.803859E-8
           6346.4     1.800884E-8
         6351.481     1.797905E-8
         6356.567     1.794917E-8
         6361.657     1.791920E-8
         6366.751     1.788904E-8
         6371.849     1.785882E-8
         6376.955     1.782851E-8
         6382.065     1.779818E-8
         6387.175     1.776788E-8
          6392.29     1.773738E-8
         6397.408     1.770665E-8
         6402.531     1.782119E-8
         6407.661     1.808492E-8
         6412.795     1.834884E-8
          6417.93     1.861280E-8
         6423.069     1.887678E-8
         6428.212     1.914085E-8
         6433.359     1.940511E-8
         6438.515     1.966979E-8
         6443.673     1.993449E-8
         6448.833     2.019917E-8
         6453.997     2.046400E-8
         6459.165     2.072901E-8
         6464.337     2.099366E-8
         6469.517     2.125858E-8
         6474.701     2.152369E-8
         6479.885     2.178879E-8
         6485.074     2.205413E-8
          6490.27     2.231982E-8
         6495.463     2.258458E-8
         6500.668     2.343015E-8
         6505.877     2.820938E-8
         6511.086     3.297622E-8
           6516.3     3.773335E-8
         6521.521     4.248361E-8
         6526.747     4.722394E-8
         6531.966     5.194474E-8
           6537.2     5.666474E-8
         6542.438     6.137497E-8
         6547.677     6.607146E-8
          6552.92     7.075812E-8
          6558.17     7.543702E-8
         6563.418     8.009993E-8
         6568.678     8.475891E-8
         6573.941     8.940533E-8
         6579.205     9.403767E-8
         6584.473     1.211991E-7
         6589.749     1.523251E-7
         6595.029     1.535835E-7
         6600.307     1.533526E-7
         6605.595     1.531190E-7
         6610.885     1.528851E-7
         6616.178     1.526491E-7
         6621.479     1.749631E-7
         6626.785     2.554365E-7
         6632.091     3.038891E-7
         6637.402     3.034122E-7
         6642.717     3.440888E-7
         6648.036     4.239912E-7
         6653.363     5.037571E-7
         6658.694     5.833198E-7
         6664.026     6.626494E-7
         6669.358     7.417349E-7
         6674.702     8.912706E-7
         6680.047     1.049961E-6
         6685.399     1.208370E-6
         6690.753     1.366289E-6
         6696.114     1.523889E-6
         6701.476     1.702958E-6
         6706.842     1.939372E-6
         6712.212     2.175177E-6
         6717.587     2.410416E-6
          6722.97     2.645216E-6
         6728.356     2.879405E-6
         6733.744     3.223169E-6
         6739.136     3.614438E-6
         6744.532     3.938111E-6
         6749.933     4.248272E-6
         6755.341     4.714235E-6
         6760.754     5.169927E-6
         6766.168     5.556059E-6
         6771.586     5.987397E-6
         6777.008     6.529151E-6
         6782.435     7.034147E-6
         6787.869     7.494639E-6
         6793.308     8.049613E-6
         6798.748     8.664309E-6
         6804.192     9.216881E-6
         6809.644     9.750311E-6
         6815.093     1.042787E-5
         6820.554     1.110686E-5
         6826.015     1.171329E-5
         6831.484     1.236086E-5
         6836.955     1.312000E-5
         6842.433     1.384294E-5
         6847.912     1.452008E-5
         6853.396     1.524355E-5
         6858.883     1.599462E-5
         6864.379     1.668194E-5
         6869.875     1.735104E-5
          6875.38     1.817073E-5
         6880.886     1.897858E-5
         6886.392     1.971872E-5
          6891.91     2.048458E-5
         6897.432     2.129875E-5
         6902.955     2.198612E-5
         6908.482     2.256374E-5
         6914.018     2.330818E-5
         6919.558     2.411389E-5
         6925.095     2.477483E-5
         6930.644     2.543151E-5
         6936.193     2.615400E-5
         6941.748     2.682608E-5
          6947.31     2.739127E-5
         6952.876     2.799438E-5
         6958.444     2.863219E-5
         6964.016     2.921346E-5
         6969.592     2.977187E-5
         6975.173     3.025800E-5
         6980.762     3.072702E-5
         6986.352     3.112867E-5
          6991.95     3.155580E-5
         6997.548     3.203077E-5
         7003.151     3.244518E-5
         7008.759     3.281175E-5
         7014.375     3.311727E-5
         7019.992     3.340409E-5
         7025.617     3.369007E-5
         7031.242     3.399089E-5
         7036.873     3.434892E-5
         7042.507     3.463816E-5
          7048.15     3.484268E-5
         7053.794     3.504623E-5
         7059.446     3.524883E-5
         7065.099     3.545006E-5
         7070.756     3.564998E-5
         7076.417     3.584869E-5
         7082.084     3.601899E-5
         7087.759     3.614169E-5
         7093.438     3.626387E-5
         7099.118     3.638529E-5
         7104.803     3.650584E-5
         7110.496     3.661279E-5
         7116.185     3.658570E-5
         7121.887     3.660657E-5
          7127.59     3.672422E-5
         7133.301     3.671557E-5
         7139.013     3.661526E-5
         7144.733     3.663412E-5
          7150.45     3.666594E-5
          7156.18     3.656526E-5
          7161.91     3.646477E-5
         7167.649     3.636435E-5
         7173.388     3.622227E-5
         7179.136     3.605138E-5
         7184.885     3.594111E-5
         7190.638     3.583374E-5
         7196.396     3.566404E-5
         7202.162     3.549464E-5
         7207.929     3.532583E-5
         7213.701     3.515746E-5
         7219.481     3.498943E-5
         7225.266     3.475846E-5
         7231.047     3.453487E-5
         7236.841     3.436855E-5
         7242.636     3.417128E-5
         7248.436     3.393696E-5
         7254.244     3.370325E-5
         7260.056     3.346963E-5
         7265.866     3.316854E-5
         7271.688     3.286834E-5
          7277.51     3.256988E-5
         7283.337     3.231164E-5
         7289.173     3.208326E-5
          7295.01     3.185632E-5
         7300.855     3.161000E-5
         7306.698     3.124829E-5
         7312.552     3.094729E-5
         7318.408     3.072472E-5
         7324.272     3.055186E-5
         7330.137     3.039314E-5
          7336.01     3.003698E-5
         7341.884     2.970413E-5
         7347.763     2.941835E-5
         7353.646     2.917533E-5
         7359.539     2.895851E-5
         7365.432     2.855793E-5
         7371.334     2.818827E-5
         7377.236     2.797485E-5
         7383.144     2.769162E-5
         7389.056     2.734754E-5
         7394.972     2.711632E-5
         7400.897     2.689694E-5
         7406.828     2.662272E-5
         7412.759     2.638014E-5
         7418.694     2.617341E-5
         7424.635     2.586539E-5
          7430.58     2.553636E-5
         7436.534     2.526789E-5
         7442.488     2.500045E-5
         7448.452     2.473359E-5
         7454.416     2.451644E-5
         7460.389     2.431264E-5
         7466.359     2.404944E-5
         7472.342     2.378689E-5
         7478.325     2.352561E-5
         7484.317     2.326516E-5
          7490.31     2.300596E-5
         7496.312     2.274804E-5
         7502.311     2.249150E-5
         7508.322     2.223569E-5
         7514.334     2.198105E-5
         7520.355     2.173098E-5
         7526.377     2.154169E-5
         7532.408     2.132769E-5
         7538.439     2.107675E-5
         7544.471     2.092024E-5
         7550.517     2.078045E-5
         7556.566     2.046899E-5
         7562.617     2.018611E-5
         7568.673     1.993980E-5
         7574.738     1.969434E-5
         7580.807     1.947471E-5
         7586.873     1.941751E-5
         7592.952     1.927003E-5
         7599.032     1.902782E-5
         7605.117     1.883845E-5
         7611.211     1.864723E-5
          7617.31     1.840756E-5
         7623.409     1.820326E-5
         7629.509     1.802687E-5
         7635.623     1.779482E-5
         7641.736     1.759358E-5
          7647.86     1.747998E-5
         7653.988     1.728788E-5
         7660.117     1.705676E-5
         7666.246     1.694503E-5
         7672.389     1.678666E-5
         7678.532     1.655567E-5
         7684.685     1.641677E-5
         7690.838     1.629886E-5
         7697.001     1.612975E-5
         7703.164     1.596144E-5
         7709.333     1.579379E-5
         7715.505     1.562686E-5
         7721.684     1.547669E-5
         7727.871     1.536994E-5
         7734.063     1.522492E-5
         7740.256     1.506040E-5
         7746.454     1.489660E-5
         7752.657     1.475847E-5
         7758.864     1.465421E-5
         7765.082     1.450269E-5
         7771.304     1.435336E-5
         7777.526     1.425050E-5
         7783.754     1.414800E-5
         7789.987     1.404586E-5
         7796.224     1.382944E-5
         7802.471     1.365899E-5
         7808.723     1.355848E-5
         7814.976     1.345839E-5
         7821.234     1.334745E-5
           7827.5     1.319127E-5
         7833.764     1.310401E-5
         7840.041     1.306131E-5
         7846.319     1.290672E-5
         7852.606     1.277602E-5
         7858.894     1.267879E-5
         7865.191     1.258189E-5
         7871.489     1.248542E-5
         7877.792     1.238931E-5
           7884.1     1.229358E-5
         7890.417     1.219814E-5
         7896.735     1.210316E-5
         7903.063     1.198175E-5
         7909.391     1.183257E-5
          7915.72     1.173375E-5
         7922.063     1.165827E-5
         7928.411     1.161991E-5
         7934.759     1.154082E-5
         7941.113     1.144841E-5
         7947.476     1.135633E-5
         7953.844     1.126461E-5
         7960.208     1.117515E-5
         7966.587     1.113799E-5
         7972.966     1.107596E-5
          7979.35     1.098549E-5
         7985.744     1.089537E-5
         7992.143     1.064317E-5
         7998.542     1.007085E-5
         8004.947     9.893284E-6
         8011.357     9.831620E-6
         8017.772     9.770108E-6
         8024.196     9.708785E-6
         8030.622     9.647705E-6
         8037.056     9.586781E-6
         8043.487     9.526124E-6
         8049.933     9.465569E-6
         8056.378     9.405207E-6
         8062.833     9.345011E-6
          8069.29     9.285066E-6
         8075.756     9.225279E-6
         8082.222     9.165719E-6
         8088.694     9.106350E-6
         8095.171     9.047173E-6
         8101.657     8.991986E-6
         8108.145     8.948140E-6
         8114.642     8.904352E-6
         8121.139     8.860646E-6
         8127.642     8.816957E-6
          8134.15     8.773352E-6
         8140.663     8.729809E-6
         8147.186     8.686296E-6
         8153.714     8.642805E-6
         8160.243     8.599375E-6
         8166.777     8.556050E-6
         8173.317     8.512752E-6
         8179.861     8.469481E-6
         8186.416     8.426286E-6
         8192.971     8.383175E-6
         8199.536     8.340077E-6
         8206.102     8.302167E-6
         8212.677     8.264633E-6
         8219.249     8.227174E-6
         8225.835     8.189632E-6
         8232.421     8.152132E-6
         8239.018     8.114627E-6
         8245.615     8.077113E-6
         8252.222     8.039583E-6
          8258.83     8.002106E-6
         8265.443     7.964601E-6
         8272.062     7.927102E-6
         8278.689     7.889611E-6
         8285.318     7.852115E-6
         8291.953     7.814621E-6
         8298.597     7.777138E-6
         8305.247     7.739623E-6
         8311.893     7.702167E-6
         8318.553     7.664694E-6
         8325.214     7.627218E-6
          8331.88     7.589749E-6
         8338.556     7.552295E-6
         8345.237     7.514810E-6
         8351.915     7.484676E-6
         8358.607     7.472628E-6
         8365.301     7.460413E-6
         8371.999     7.448059E-6
         8378.707     7.435582E-6
         8385.416     7.422939E-6
         8392.135     7.410149E-6
         8398.851     7.397260E-6
          8405.58     7.381569E-6
         8412.311     7.365224E-6
         8419.052     7.348760E-6
         8425.793     7.332141E-6
         8432.544     7.315372E-6
         8439.297     7.298475E-6
         8446.054     7.281448E-6
         8452.817     7.264297E-6
          8459.59     7.247024E-6
         8466.364     7.229585E-6
         8473.148     7.211996E-6
         8479.933     7.194281E-6
         8486.723     7.176470E-6
         8493.519     7.158494E-6
         8500.319     7.140090E-6
         8507.131     7.116079E-6
         8513.947     7.091977E-6
         8520.765     7.067780E-6
         8527.588     7.043427E-6
         8534.416     7.018979E-6
          8541.25     6.994415E-6
         8548.094     6.969683E-6
         8554.938     6.944848E-6
         8561.793     6.919883E-6
         8568.649     6.894837E-6
         8575.515     6.869626E-6
         8582.377     6.844330E-6
         8589.254     6.818901E-6
         8596.132     6.793331E-6
          8603.02     6.770064E-6
         8609.908     6.749800E-6
         8616.807     6.729402E-6
         8623.702     6.708846E-6
         8630.612     6.688088E-6
         8637.522     6.667220E-6
         8644.444     6.646150E-6
         8651.366     6.624749E-6
         8658.293     6.602509E-6
          8665.23     6.580119E-6
          8672.17     6.557582E-6
         8679.113     6.534869E-6
         8686.068     6.512007E-6
         8693.023     6.488989E-6
         8699.984     6.465789E-6
         8706.955     6.437055E-6
         8713.932     6.408204E-6
         8720.904     6.379281E-6
         8727.893     6.350162E-6
         8734.881     6.320968E-6
         8741.875     6.291662E-6
          8748.88     6.262209E-6
         8755.891     6.232602E-6
         8762.896     6.202926E-6
         8769.913     6.173122E-6
          8776.94     6.143138E-6
         8783.969     6.113068E-6
         8791.007     6.082865E-6
         8798.046     6.052525E-6
         8805.096     6.025984E-6
         8812.142     6.000824E-6
         8819.203     5.975454E-6
         8826.265     5.949929E-6
         8833.337     5.924210E-6
          8840.41     5.898332E-6
         8847.493     5.872260E-6
         8854.578     5.846048E-6
         8861.668     5.819664E-6
         8868.764     5.793071E-6
         8875.865     5.766298E-6
         8882.978     5.739326E-6
         8890.096     5.712170E-6
         8897.214     5.684853E-6
         8904.338     5.652910E-6
         8911.468     5.617990E-6
         8918.604     5.582959E-6
          8925.75     5.547794E-6
         8932.902     5.512515E-6
         8940.055     5.477154E-6
         8947.214     5.441708E-6
         8954.378     5.405715E-6
         8961.548     5.369337E-6
         8968.729     5.332831E-6
          8975.91     5.296249E-6
         8983.103     5.259539E-6
         8990.296     5.222752E-6
         8997.499     5.185844E-6
         9004.699     5.155883E-6
         9011.914     5.129465E-6
         9019.131     5.102905E-6
         9026.357     5.076124E-6
         9033.585     5.049195E-6
         9040.823     5.022078E-6
         9048.058     4.994790E-6
         9055.308     4.967284E-6
         9062.559     4.939625E-6
          9069.82     4.911783E-6
         9077.083     4.883746E-6
         9084.356     4.855523E-6
          9091.63     4.827144E-6
         9098.905     4.798569E-6
         9106.196     4.764351E-6
         9113.492     4.729068E-6
          9120.79     4.693696E-6
         9128.099     4.658194E-6
         9135.407     4.622614E-6
         9142.728     4.586911E-6
         9150.044     4.551165E-6
         9157.375     4.515239E-6
         9164.708     4.479227E-6
         9172.046     4.443113E-6
         9179.396     4.406863E-6
         9186.746     4.370530E-6
         9194.107     4.334064E-6
         9201.464     4.298790E-6
         9208.837     4.268333E-6
         9216.211     4.237693E-6
         9223.596     4.206827E-6
         9230.981     4.175777E-6
         9238.378     4.144501E-6
         9245.771     4.113041E-6
         9253.179     4.081134E-6
         9260.588     4.048788E-6
         9268.009     4.016215E-6
          9275.43     3.983469E-6
         9282.861     3.950497E-6
         9290.295     3.917338E-6
         9297.734     3.883973E-6
         9305.179     3.849019E-6
         9312.635     3.813254E-6
         9320.092     3.777342E-6
          9327.56     3.741235E-6
         9335.028     3.704982E-6
         9342.504     3.668559E-6
         9349.984     3.631983E-6
         9357.477     3.595182E-6
          9364.97     3.558232E-6
         9372.468     3.521113E-6
         9379.979     3.483785E-6
         9387.489     3.446310E-6
         9395.006     3.408659E-6
         9402.528     3.370874E-6
         9410.063     3.332961E-6
         9417.598     3.294894E-6
         9425.144     3.256620E-6
          9432.69     3.218189E-6
         9440.249     3.179545E-6
         9447.803     3.140773E-6
         9455.373     3.101776E-6
         9462.944     3.062617E-6
         9470.527     3.023231E-6
          9478.11     2.983690E-6
         9485.705     2.943932E-6
         9493.301     2.904011E-6
         9500.902     2.865355E-6
          9508.51     2.837377E-6
         9516.129     2.809332E-6
         9523.749     2.781263E-6
          9531.38     2.753132E-6
         9539.012     2.724976E-6
          9546.65     2.696776E-6
         9554.295     2.668525E-6
          9561.95     2.640211E-6
         9569.606     2.611886E-6
          9577.27     2.583520E-6
         9584.943     2.555094E-6
         9592.618     2.526647E-6
           9600.3     2.498002E-6
         9607.987     2.465527E-6
         9615.686     2.433092E-6
         9623.385     2.400732E-6
         9631.096     2.368402E-6
         9638.808     2.336170E-6
         9646.531     2.303976E-6
          9654.25     2.271888E-6
         9661.986     2.239816E-6
         9669.723     2.207832E-6
         9677.471     2.175875E-6
          9685.22     2.144011E-6
          9692.98     2.112193E-6
         9700.737     2.080832E-6
          9708.51     2.052802E-6
         9716.284     2.024745E-6
         9724.069     1.996635E-6
         9731.855     1.968504E-6
         9739.653     1.940302E-6
         9747.452     1.912078E-6
         9755.258     1.883293E-6
         9763.069     1.854235E-6
         9770.892     1.825141E-6
         9778.716     1.796053E-6
         9786.551     1.766921E-6
         9794.388     1.737785E-6
          9802.23     1.708241E-6
         9810.079     1.677727E-6
         9817.935     1.647257E-6
         9825.802     1.616792E-6
         9833.669     1.586389E-6
         9841.549     1.556000E-6
          9849.43     1.525662E-6
         9857.316     1.495363E-6
         9865.209     1.465109E-6
         9873.114     1.434870E-6
          9881.02     1.404691E-6
         9888.938     1.374535E-6
         9896.855     1.344436E-6
         9904.785     1.313858E-6
         9912.711     1.283062E-6
         9920.654     1.252299E-6
         9928.598     1.221643E-6
         9936.554     1.191052E-6
          9944.51     1.160569E-6
         9952.479     1.130143E-6
         9960.447     1.099822E-6
         9968.423     1.069585E-6
         9976.405     1.039436E-6
         9984.399     1.009352E-6
         9992.395     9.793739E-7
          10000.4     9.501891E-7
         10008.41     9.345040E-7
         10016.43     9.188938E-7
         10024.45     9.033356E-7
         10032.48     8.878301E-7
         10040.51     8.723806E-7
         10048.55     8.569855E-7
         10056.59     8.416477E-7
         10064.66     8.263452E-7
         10072.71     8.111413E-7
         10080.78     7.959522E-7
         10088.85     7.808458E-7
         10096.93     7.657962E-7
         10105.02     8.225132E-7
         10113.12     8.577637E-7
         10121.22     7.940872E-7
         10129.32     7.287840E-7
         10137.43     7.632509E-7
         10145.55     7.985687E-7
         10153.67     7.516879E-7
         10161.82     6.225291E-7
         10169.95     5.260647E-7
          10178.1     6.110462E-7
         10186.25     5.702148E-7
          10194.4     6.213612E-7
         10202.57     6.927616E-7
         10210.75     5.880598E-7
         10218.92     5.155522E-7
         10227.11     5.340023E-7
         10235.29     5.842899E-7
         10243.49     6.051771E-7
         10251.69     5.733502E-7
         10259.91     5.331869E-7
         10268.13     5.450206E-7
         10276.35     5.176340E-7
         10284.58     4.801356E-7
         10292.81     4.370640E-7
         10301.06     3.885268E-7
          10309.3     3.802929E-7
         10317.57     3.932355E-7
         10325.83     3.649888E-7
          10334.1     3.622303E-7
         10342.38     3.760673E-7
         10350.66     3.349740E-7
         10358.95     3.139241E-7
         10367.25     3.130855E-7
         10375.55     2.866805E-7
         10383.86     2.857769E-7
         10392.18     3.044572E-7
          10400.5     2.657531E-7
         10408.83     2.365010E-7
         10417.17     2.150230E-7
         10425.51     2.123218E-7
         10433.86     1.837412E-7
         10442.21     1.466746E-7
         10450.59     1.786520E-7
         10458.94     1.879802E-7
         10467.33     1.742047E-7
         10475.71     1.518483E-7
          10484.1     1.406970E-7
          10492.5     1.335891E-7
          10500.9     1.114627E-7
         10509.32     1.099483E-7
         10517.72     1.295481E-7
         10526.15     1.220534E-7
         10534.58     1.042313E-7
         10543.02     9.338092E-8
         10551.46     9.324702E-8
         10559.92     8.697018E-8
         10568.37     8.565232E-8
         10576.84     8.199665E-8
         10585.31     8.328389E-8
         10593.78     8.533913E-8
         10602.27     8.038756E-8
         10610.77     6.585769E-8
         10619.26     6.484348E-8
         10627.77     6.006999E-8
         10636.28     6.214034E-8
         10644.79     6.787188E-8
         10653.32     7.021758E-8
         10661.86     6.601434E-8
          10670.4     6.183416E-8
         10678.94     6.244304E-8
         10687.49     6.144076E-8
         10696.05     6.348187E-8
         10704.62     6.357369E-8
         10713.19     6.145805E-8
         10721.78     5.954762E-8
         10730.36     5.568961E-8
         10738.95     5.442623E-8
         10747.55     4.567450E-8
         10756.16     4.376120E-8
         10764.77     4.233899E-8
          10773.4     3.828758E-8
         10782.03     3.358546E-8
         10790.66     3.054253E-8
          10799.3     3.333311E-8
         10807.95     3.744300E-8
         10816.61     3.526961E-8
         10825.27     3.778941E-8
         10833.93     3.802980E-8
         10842.62     3.348719E-8
          10851.3     3.368056E-8
           10860.     3.030024E-8
          10868.7     3.059211E-8
          10877.4     2.650898E-8
          10886.1     2.687875E-8
         10894.83     2.436317E-8
         10903.55     2.032495E-8
          10912.3     1.918172E-8
         10921.04     1.772055E-8
         10929.78     1.729980E-8
         10938.53     1.946862E-8
         10947.29     1.749670E-8
         10956.06     1.361166E-8
         10964.84     1.279770E-8
         10973.62     1.230049E-8
          10982.4     9.943254E-9
          10991.2     1.024512E-8
           11000.     8.845024E-9
