#  Table pcf336wsys.tab  Mon 12:21:08 02-Jun-97

#      WAVELENGTH      THROUGHPUT
#       angstroms                

            2890.    4.628875E-10
         2891.934     3.686438E-9
         2893.866     2.132493E-8
         2895.804     5.124289E-8
         2897.742     1.038618E-7
         2899.679     2.534554E-7
         2901.618     5.030681E-7
         2903.559     7.721293E-7
         2905.501     1.040867E-6
         2907.445     1.309280E-6
         2909.389     1.577299E-6
         2911.335     3.107500E-6
         2913.283     5.212630E-6
         2915.233     7.316954E-6
         2917.181     9.414667E-6
         2919.133     1.151128E-5
         2921.083     1.610407E-5
         2923.039     2.270309E-5
         2924.996     2.929265E-5
         2926.951     3.586206E-5
         2928.908     4.242769E-5
         2930.867     5.315715E-5
         2932.826     6.911027E-5
          2934.79     8.506343E-5
         2936.753     1.009828E-4
         2938.717     1.168782E-4
         2940.683     1.194297E-4
          2942.65     1.101831E-4
         2944.616     1.300865E-4
         2946.587     1.553359E-4
         2948.558     1.822966E-4
         2950.529     2.123329E-4
         2952.504     2.435487E-4
         2954.479     2.786762E-4
         2956.455     3.163752E-4
         2958.433     3.568945E-4
         2960.412     4.007589E-4
          2962.39     4.484704E-4
         2964.373     5.013793E-4
         2966.358     5.554185E-4
          2968.34     6.154299E-4
         2970.326     6.773491E-4
         2972.313     7.429156E-4
         2974.299     8.132991E-4
          2976.29     8.865246E-4
         2978.279     9.641494E-4
         2980.273       0.0010469
         2982.266     0.001133723
          2984.26     0.001223814
         2986.257     0.001317555
         2988.255     0.001415279
         2990.252     0.001515797
         2992.254     0.001620745
         2994.255      0.00172413
         2996.258      0.00183078
         2998.262     0.001939444
         3000.268     0.002052784
         3002.273     0.002167162
         3004.281      0.00228096
         3006.292     0.002397579
         3008.303      0.00251799
         3010.315     0.002640437
         3012.329     0.002765854
         3014.342     0.002888754
         3016.358     0.003014369
         3018.377     0.003147982
         3020.396     0.003287163
         3022.417     0.003427634
         3024.438     0.003574716
         3026.459       0.0037323
         3028.485      0.00389438
         3030.511     0.004059128
         3032.537     0.004231725
         3034.567     0.004422295
         3036.595     0.004628993
         3038.627     0.004848065
          3040.66      0.00507801
         3042.692     0.005318955
         3044.727     0.005572618
         3046.764     0.005850454
         3048.803     0.006154126
         3050.843     0.006481331
         3052.883     0.006831001
         3054.924     0.007201184
         3056.967     0.007595238
         3059.013     0.008021741
         3061.058     0.008479541
         3063.107     0.008969065
         3065.156     0.009491517
         3067.205      0.01004411
         3069.258      0.01062981
         3071.311      0.01124883
         3073.364      0.01189297
         3075.419      0.01255867
         3077.478      0.01324401
         3079.536      0.01394493
         3081.596       0.0146626
         3083.657      0.01539212
         3085.718       0.0161121
         3087.782      0.01681509
         3089.849      0.01750526
         3091.916      0.01816585
         3093.984      0.01879675
         3096.054      0.01939018
         3098.123      0.01994028
         3100.197       0.0204449
         3102.269      0.02094933
         3104.344       0.0214025
         3106.422      0.02180354
         3108.498      0.02215878
         3110.579         0.02247
          3112.66      0.02274166
          3114.74      0.02298236
         3116.823      0.02319913
          3118.91       0.0233933
         3120.996      0.02355517
         3123.083      0.02368714
         3125.173      0.02380521
         3127.261      0.02392774
         3129.353      0.02406045
         3131.448      0.02419483
         3133.541      0.02432323
         3135.638      0.02443673
         3137.736      0.02455331
         3139.833      0.02469496
         3141.935      0.02484145
         3144.036      0.02498199
         3146.137      0.02512753
         3148.244      0.02530804
         3150.349      0.02548797
         3152.455      0.02564942
         3154.565      0.02582045
         3156.674      0.02600498
         3158.785      0.02620277
         3160.898      0.02641286
         3163.012      0.02662291
         3165.129      0.02683668
         3167.247      0.02704475
         3169.363      0.02723463
         3171.483      0.02742353
         3173.605      0.02762653
         3175.727      0.02782464
         3177.852      0.02798643
         3179.979       0.0281533
         3182.104      0.02832402
         3184.233      0.02848621
         3186.363      0.02864273
         3188.494      0.02877378
         3190.626       0.0288949
         3192.762      0.02902551
         3194.896      0.02915186
         3197.033      0.02926262
         3199.173      0.02936747
         3201.312      0.02947865
         3203.453      0.02958816
         3205.594      0.02968113
          3207.74      0.02976494
         3209.887      0.02984621
         3212.034      0.02992493
         3214.181      0.02999576
         3216.331      0.03007331
          3218.48      0.03014694
         3220.635      0.03021641
         3222.791      0.03028434
         3224.945      0.03036173
         3227.102       0.0304376
          3229.26      0.03049045
          3231.42      0.03055162
         3233.582      0.03063521
         3235.745      0.03072137
         3237.909      0.03079328
         3240.075       0.0308532
         3242.244      0.03091638
         3244.411      0.03099996
         3246.581      0.03108408
         3248.752      0.03115171
         3250.925      0.03121745
         3253.102       0.0312972
         3255.278      0.03137868
         3257.453       0.0314252
         3259.632      0.03145665
         3261.811      0.03149351
         3263.994       0.0315336
         3266.177      0.03157448
         3268.364      0.03159968
         3270.548      0.03164633
         3272.736      0.03169942
         3274.925      0.03173846
         3277.115      0.03175832
         3279.307      0.03177522
         3281.499      0.03180217
         3283.696      0.03183386
         3285.894      0.03185643
          3288.09      0.03185884
         3290.289      0.03188042
          3292.49      0.03190507
         3294.691      0.03192424
         3296.896      0.03193145
         3299.103      0.03191906
         3301.308      0.03189918
         3303.516      0.03189324
         3305.724      0.03190682
         3307.937      0.03191339
          3310.15      0.03191769
         3312.364      0.03191417
         3314.579      0.03191617
         3316.796      0.03191555
         3319.017      0.03190516
         3321.235      0.03189762
         3323.457      0.03189104
         3325.678      0.03188311
         3327.904      0.03187488
         3330.132      0.03187653
         3332.359      0.03188878
         3334.586      0.03189932
         3336.817      0.03190242
         3339.047      0.03190725
         3341.282      0.03190996
         3343.517      0.03191689
         3345.753      0.03194438
         3347.991      0.03196036
         3350.231      0.03196534
          3352.47      0.03198858
         3354.714      0.03201801
         3356.958      0.03204173
         3359.203      0.03206411
          3361.45      0.03208508
         3363.699      0.03211387
         3365.948       0.0321579
           3368.2      0.03220545
         3370.453       0.0322446
         3372.706      0.03227884
         3374.963      0.03232245
         3377.223      0.03237724
          3379.48      0.03242551
          3381.74      0.03248743
         3384.002       0.0325586
         3386.264      0.03260469
         3388.529      0.03266758
         3390.799      0.03274519
         3393.065      0.03283484
         3395.335      0.03292624
         3397.604      0.03299085
         3399.876      0.03302535
         3402.153      0.03309698
         3404.426      0.03318814
         3406.705      0.03329201
         3408.984      0.03338519
         3411.262      0.03348361
         3413.546      0.03359017
         3415.827      0.03369322
         3418.112      0.03378535
         3420.398      0.03388356
         3422.688      0.03397926
         3424.978      0.03406798
         3427.268      0.03415823
         3429.561      0.03425124
         3431.853      0.03434551
         3434.148      0.03443214
         3436.445       0.0345083
         3438.746       0.0345776
         3441.046      0.03464309
         3443.346      0.03470639
         3445.649      0.03475886
         3447.956      0.03480303
          3450.26      0.03482684
         3452.568      0.03484436
         3454.879      0.03484972
         3457.188      0.03484239
         3459.502      0.03482277
         3461.816      0.03478038
          3464.13      0.03473178
         3466.447      0.03467818
         3468.768      0.03460654
          3471.09      0.03451775
         3473.409      0.03440899
         3475.733      0.03427026
         3478.056      0.03412034
         3480.382      0.03395806
         3482.712      0.03377637
          3485.04       0.0335699
         3487.373       0.0333507
         3489.703      0.03311334
         3492.038      0.03285529
         3494.375       0.0325788
         3496.711      0.03228267
          3499.05      0.03196727
         3501.392      0.03163514
         3503.734      0.03129348
         3506.077      0.03093075
         3508.423      0.03055139
         3510.767      0.03016648
         3513.116      0.02976876
         3515.466      0.02936113
         3517.817      0.02894426
         3520.172      0.02852583
         3522.526      0.02810039
         3524.881      0.02765356
         3527.238      0.02720613
           3529.6       0.0267599
         3531.958      0.02631046
         3534.321      0.02585932
         3536.687      0.02540058
         3539.051      0.02493974
          3541.42      0.02450498
         3543.789      0.02406787
         3546.157      0.02360423
         3548.529      0.02313942
         3550.905      0.02269213
          3553.28      0.02224695
         3555.656      0.02179235
         3558.035      0.02133603
         3560.413      0.02088386
         3562.794      0.02043146
         3565.177      0.01998495
         3567.562      0.01953531
          3569.95      0.01908678
         3572.336      0.01865467
         3574.725       0.0182225
         3577.118      0.01778228
         3579.509      0.01735066
         3581.903      0.01692228
         3584.301      0.01649299
         3586.697      0.01606401
         3589.096      0.01563855
         3591.496      0.01521955
         3593.899      0.01480107
         3596.302      0.01438431
         3598.708      0.01397863
         3601.115      0.01357432
         3603.524      0.01316949
         3605.936      0.01276242
         3608.346        0.012359
          3610.76      0.01196085
         3613.175      0.01156587
         3615.592      0.01117149
         3618.012      0.01078864
          3620.43      0.01041215
         3622.852      0.01004003
         3625.275     0.009675655
           3627.7     0.009316468
         3630.126     0.008963359
         3632.554     0.008624076
         3634.986     0.008293255
         3637.416     0.007970531
         3639.849     0.007655728
         3642.283     0.007349651
         3644.719     0.007055182
         3647.157      0.00676954
         3649.597     0.006489063
         3652.038     0.006219401
         3654.483     0.005961819
         3656.925     0.005708488
         3659.371     0.005462854
         3661.819     0.005227034
         3664.268     0.004998792
         3666.719     0.004779082
         3669.174     0.004567544
         3671.626     0.004366806
         3674.082     0.004170549
         3676.539     0.003982496
         3678.999     0.003803611
         3681.459     0.003631495
         3683.922     0.003476709
         3686.386     0.003322357
         3688.852     0.003171137
         3691.321     0.003027969
         3693.788     0.002890749
         3696.259     0.002762725
         3698.731     0.002640543
         3701.205     0.002523292
         3703.683     0.002407895
         3706.158     0.002301295
         3708.637     0.002196702
         3711.118     0.002096745
           3713.6     0.002002439
         3716.084     0.001912392
          3718.57     0.001826949
         3721.057     0.001744738
         3723.546     0.001667356
         3726.036     0.001590809
         3728.529     0.001517402
         3731.023     0.001447789
         3733.518     0.001379652
         3736.016     0.001316527
         3738.514     0.001256503
         3741.017     0.001199108
         3743.517     0.001143137
         3746.021     0.001086921
         3748.527     0.001030514
         3751.034     9.800119E-4
         3753.543     9.380418E-4
         3756.054     8.959208E-4
         3758.566     8.536527E-4
          3761.08     8.117902E-4
         3763.596     7.705090E-4
         3766.114     7.290882E-4
         3768.633     6.875236E-4
         3771.155     6.507844E-4
         3773.676     6.198974E-4
           3776.2     5.888788E-4
         3778.726     5.577517E-4
         3781.253     5.271049E-4
         3783.782     4.969456E-4
         3786.313     4.666847E-4
         3788.846     4.363161E-4
         3791.382     4.103306E-4
         3793.916     3.880659E-4
         3796.454     3.657072E-4
         3798.993     3.432714E-4
         3801.534     3.215222E-4
         3804.077     3.002033E-4
         3806.622     2.788107E-4
         3809.168     2.573443E-4
         3811.716     2.400987E-4
         3814.265     2.248816E-4
         3816.816     2.096120E-4
         3819.367     1.943018E-4
         3821.924     1.800001E-4
          3824.48     1.660173E-4
         3827.039     1.519855E-4
         3829.599     1.379072E-4
          3832.16     1.276023E-4
         3834.723     1.179738E-4
         3837.288     1.083123E-4
         3839.853     9.862622E-5
         3842.423     9.018347E-5
         3844.993     8.179783E-5
         3847.565     7.338284E-5
         3850.139     6.510768E-5
         3852.714     5.974845E-5
         3855.289     5.437513E-5
          3857.87     4.897493E-5
          3860.45     4.374455E-5
         3863.032     3.936884E-5
         3865.616     3.497799E-5
         3868.202     3.057237E-5
         3870.787     2.670462E-5
         3873.379     2.407532E-5
         3875.969     2.143941E-5
         3878.562     1.879465E-5
         3881.156     1.645210E-5
         3883.752     1.448936E-5
          3886.35     1.251988E-5
         3888.949     1.054402E-5
         3891.551     9.107750E-6
         3894.154     8.037541E-6
         3896.759     6.963765E-6
         3899.365     5.886411E-6
         3901.973     5.079995E-6
         3904.583     4.359429E-6
         3907.193     3.637018E-6
         3909.806     2.911609E-6
         3912.423     2.537624E-6
          3915.04     2.191069E-6
         3917.659     1.843340E-6
          3920.28     1.508774E-6
           3922.9     1.293029E-6
         3925.526     1.076235E-6
         3928.151     8.588955E-7
         3930.777     6.808935E-7
         3933.408     5.972487E-7
         3936.039     5.133930E-7
         3938.672     4.292634E-7
         3941.306     3.617131E-7
         3943.943     3.110968E-7
         3946.578     2.603643E-7
          3949.22     2.093834E-7
         3951.862     1.824155E-7
         3954.505     1.654905E-7
          3957.15     1.485093E-7
         3959.795     1.314890E-7
         3962.444     1.143962E-7
         3965.096     9.723449E-8
         3967.746     8.004678E-8
         3970.402     6.540579E-8
         3973.058     6.548800E-8
         3975.716     6.557033E-8
         3978.375     6.565276E-8
         3981.036     6.573500E-8
         3983.697     6.581683E-8
         3986.363     6.589889E-8
          3989.03     6.598102E-8
         3991.698     6.606243E-8
         3994.368     6.614351E-8
          3997.04     6.622469E-8
         3999.711     6.630592E-8
         4002.386     6.630842E-8
         4005.066     6.630135E-8
         4007.745     6.629423E-8
         4010.425     6.628700E-8
         4013.108     6.627909E-8
          4015.79     6.627118E-8
         4018.478     6.626322E-8
         4021.164     6.625488E-8
         4023.856     6.624608E-8
         4026.547     6.623726E-8
          4029.24     6.622840E-8
         4031.936     6.621902E-8
          4034.63     6.620938E-8
         4037.329     6.619971E-8
         4040.029     6.619001E-8
         4042.734     6.617953E-8
         4045.438     6.616903E-8
         4048.142     6.615852E-8
         4050.852     6.614772E-8
         4053.561     6.613638E-8
          4056.27     6.612502E-8
         4058.986     6.611361E-8
         4061.701     6.610174E-8
         4064.417     6.608958E-8
         4067.136     6.607738E-8
         4069.856     6.606516E-8
         4072.579     6.605219E-8
         4075.298     6.603917E-8
         4078.029     6.602608E-8
         4080.756     6.601279E-8
         4083.486     6.599896E-8
         4086.217     6.598511E-8
         4088.948     6.597122E-8
         4091.685     6.595720E-8
          4094.42     6.594311E-8
         4097.159     6.592897E-8
         4099.901     6.591481E-8
         4102.642     6.589939E-8
         4105.388     6.588387E-8
         4108.134     6.586835E-8
         4110.879     6.585274E-8
         4113.631     6.583699E-8
         4116.383     6.582123E-8
         4119.136     6.580543E-8
         4121.892     6.578875E-8
         4124.648     6.577167E-8
         4127.408     6.575453E-8
         4130.164     6.573738E-8
         4132.931     6.571999E-8
         4135.693     6.570263E-8
         4138.461     6.568519E-8
          4141.23     6.566768E-8
         4143.998     6.565008E-8
         4146.771     6.563244E-8
         4149.543     6.561479E-8
         4152.318     6.559603E-8
         4155.098     6.557702E-8
         4157.875     6.555800E-8
         4160.659     6.553890E-8
         4163.441     6.551970E-8
         4166.224     6.550051E-8
         4169.011     6.548127E-8
         4171.797     6.546153E-8
          4174.59     6.544148E-8
         4177.384     6.542141E-8
         4180.179     6.540130E-8
         4182.975     6.538109E-8
         4185.768     6.536088E-8
         4188.572     6.534056E-8
         4191.372     6.531995E-8
         4194.178     6.529891E-8
         4196.983     6.527787E-8
         4199.788     6.525680E-8
         4202.599     6.529680E-8
         4205.406     6.534171E-8
         4208.221     6.538675E-8
         4211.036     6.543179E-8
         4213.853     6.547680E-8
         4216.673     6.552187E-8
         4219.492     6.556695E-8
         4222.314     6.561149E-8
         4225.138     6.565599E-8
         4227.962     6.570047E-8
         4230.792     6.574504E-8
         4233.622     6.578956E-8
         4236.456     6.583415E-8
          4239.29     6.587877E-8
         4242.121     6.592283E-8
         4244.963     6.596692E-8
         4247.797     6.601092E-8
         4250.639     6.605499E-8
         4253.487     6.609913E-8
          4256.33     6.614319E-8
         4259.179     6.618738E-8
         4262.023     6.623097E-8
         4264.876     6.627452E-8
         4267.729     6.631808E-8
         4270.581     6.636162E-8
          4273.44     6.640523E-8
         4276.298     6.644886E-8
         4279.159     6.649251E-8
         4282.021     5.308888E-8
         4284.885     3.405336E-8
         4287.751     1.498341E-8
         4290.619     4.127501E-9
         4293.491     2.328919E-8
         4296.363     4.247562E-8
         4299.234     6.168030E-8
         4302.113     6.683696E-8
         4304.985     6.687946E-8
         4307.865     6.692207E-8
         4310.747     6.696470E-8
         4313.635     6.700736E-8
          4316.52     6.705002E-8
         4319.402     6.709260E-8
         4322.296     6.713532E-8
         4325.185     6.717796E-8
         4328.076     6.722064E-8
         4330.973     6.071769E-8
          4333.87     4.125785E-8
         4336.771     2.174697E-8
         4339.669     2.227739E-9
         4342.572     1.734577E-8
         4345.479     3.697342E-8
         4348.381     5.658600E-8
         4351.292     6.756013E-8
         4354.205     6.760180E-8
         4357.115     6.764342E-8
         4360.032     6.747034E-8
         4362.943     4.779275E-8
         4365.864     2.803109E-8
         4368.782     8.261271E-9
         4371.709              0.
         4374.633              0.
         4377.554              0.
         4380.487     3.312664E-9
         4383.415     2.322614E-8
         4386.344     4.318069E-8
         4389.278     6.318972E-8
         4392.217     6.814611E-8
         4395.157     6.818737E-8
         4398.094     6.822860E-8
         4401.036     6.495430E-8
          4403.98     5.556754E-8
         4406.923     4.617077E-8
         4409.873     3.674214E-8
          4412.82     3.604076E-8
         4415.774     3.573104E-8
         4418.728     3.542098E-8
         4421.681     3.511056E-8
         4424.642     3.479897E-8
         4427.599     3.448734E-8
          4430.56     3.417479E-8
         4433.528     3.386083E-8
         4436.489     3.354726E-8
         4439.461     3.323210E-8
         4442.428     3.291732E-8
         4445.397     3.260195E-8
         4448.371     3.228570E-8
         4451.346     3.196875E-8
         4454.324     3.165097E-8
         4457.303     3.133258E-8
         4460.287     3.101333E-8
         4463.271     3.069371E-8
         4466.253     3.037375E-8
         4469.243     3.005266E-8
         4472.232     2.973118E-8
         4475.224     2.940904E-8
         4478.217     2.908633E-8
          4481.21     2.876323E-8
          4484.21     2.843904E-8
         4487.207     2.811472E-8
         4490.208     2.778951E-8
         4493.212     2.746367E-8
         4496.217     2.713722E-8
         4499.229     2.680961E-8
         4502.234     2.674670E-8
         4505.246     2.677468E-8
         4508.259     2.680238E-8
         4511.274     2.682970E-8
         4514.292     2.685660E-8
         4517.312     2.688321E-8
         4520.335     2.690958E-8
         4523.359     2.693582E-8
         4526.382     2.696175E-8
         4529.413     2.698743E-8
         4532.439     2.701260E-8
         4535.471     2.703747E-8
         4538.507     2.706207E-8
         4541.543     2.708635E-8
         4544.581     2.711031E-8
         4547.618     2.713399E-8
          4550.66     2.715743E-8
         4553.704     2.718074E-8
          4556.75     2.720377E-8
         4559.803     2.722652E-8
         4562.848     2.724871E-8
         4565.899     2.727061E-8
         4568.954     2.729223E-8
          4572.01     2.731354E-8
         4575.068     2.733453E-8
         4578.128     2.735523E-8
         4581.193     2.737565E-8
         4584.257     2.739574E-8
         4587.321     2.741553E-8
         4590.392     2.743503E-8
         4593.459     2.745417E-8
         4596.532     2.747303E-8
         4599.606     2.749158E-8
         4602.686     2.745387E-8
         4605.764     2.740732E-8
         4608.842     2.736010E-8
         4611.928     2.731206E-8
          4615.01     2.726339E-8
         4618.097     2.721397E-8
         4621.186     2.716372E-8
         4624.277     2.711260E-8
         4627.373     2.706072E-8
         4630.465     2.700824E-8
         4633.563     2.695523E-8
         4636.662     2.690150E-8
         4639.763     2.684705E-8
         4642.867     2.679183E-8
         4645.975     2.673585E-8
          4649.08     2.667922E-8
         4652.192     2.662176E-8
         4655.301     2.656364E-8
         4658.415     2.650477E-8
         4661.531     2.644504E-8
         4664.651     2.638441E-8
         4667.771     2.632309E-8
         4670.891     2.626114E-8
         4674.018     2.619851E-8
         4677.142     2.613524E-8
          4680.27     2.607117E-8
         4683.401     2.600636E-8
         4686.533     2.594082E-8
          4689.67     2.587447E-8
         4692.805     2.580722E-8
         4695.944     2.573914E-8
         4699.085     2.567030E-8
         4702.228     2.560919E-8
         4705.373     2.555085E-8
         4708.523     2.549178E-8
          4711.67     2.543198E-8
         4714.821     2.537135E-8
         4717.975     2.531000E-8
         4721.131     2.524805E-8
         4724.289     2.518557E-8
         4727.449     2.512239E-8
         4730.613     2.505841E-8
         4733.775     2.499361E-8
         4736.944     2.492802E-8
          4740.11     2.486182E-8
          4743.28     2.479510E-8
         4746.453     2.472766E-8
         4749.628     2.465951E-8
         4752.805     2.459047E-8
         4755.984     2.452068E-8
         4759.165     2.445018E-8
         4762.348     2.437912E-8
         4765.534     2.430739E-8
         4768.721     2.423494E-8
         4771.911     2.416177E-8
         4775.103     2.408789E-8
         4778.297     2.401328E-8
         4781.493     2.393783E-8
         4784.691     2.386153E-8
         4787.892     2.378451E-8
         4791.094     2.370684E-8
         4794.299     2.362862E-8
         4797.505     2.354966E-8
         4800.717     2.345670E-8
         4803.926     2.331717E-8
         4807.139     2.317645E-8
         4810.354     2.303463E-8
         4813.572     2.289155E-8
         4816.792     2.274739E-8
         4820.014     2.260214E-8
         4823.237     2.245604E-8
         4826.463     2.230884E-8
         4829.692     2.216055E-8
         4832.922     2.201120E-8
         4836.155     2.186075E-8
          4839.39     2.170923E-8
         4842.627     2.155656E-8
         4845.866     2.140280E-8
         4849.107     2.124795E-8
         4852.351     2.109184E-8
         4855.596     2.093455E-8
         4858.844     2.077615E-8
         4862.094     2.061680E-8
         4865.349     2.045630E-8
         4868.601     2.029496E-8
         4871.857     2.013232E-8
         4875.116     1.996857E-8
         4878.377     1.980367E-8
          4881.64     1.963768E-8
         4884.905     1.947053E-8
         4888.175     1.930213E-8
         4891.442     1.913290E-8
         4894.714     1.896239E-8
         4897.988     1.879075E-8
         4901.264     1.867403E-8
         4904.542     1.864598E-8
         4907.823     1.861757E-8
         4911.105     1.858876E-8
         4914.391     1.855948E-8
         4917.678     1.852985E-8
         4920.967     1.849985E-8
         4924.259     1.846950E-8
         4927.552     1.843879E-8
         4930.848     1.840771E-8
         4934.146     1.837627E-8
         4937.447     1.834446E-8
          4940.75     1.831233E-8
         4944.054     1.827998E-8
         4947.361     1.824727E-8
         4950.667     1.821422E-8
         4953.981     1.818074E-8
         4957.295     1.814691E-8
         4960.611     1.811269E-8
         4963.929     1.807794E-8
          4967.25     1.804283E-8
         4970.572     1.800737E-8
         4973.896     1.797166E-8
         4977.224     1.793558E-8
         4980.553     1.789913E-8
         4983.884     1.786233E-8
         4987.218     1.782515E-8
         4990.554     1.778760E-8
         4993.892     1.774966E-8
         4997.232     1.771135E-8
         5000.575     1.769625E-8
         5003.919     1.779483E-8
         5007.267     1.789376E-8
         5010.616     1.799303E-8
         5013.967     1.809263E-8
         5017.318     1.819250E-8
         5020.677     1.829291E-8
         5024.035     1.839378E-8
         5027.396     1.849500E-8
         5030.758     1.859654E-8
         5034.123     1.869828E-8
         5037.491     1.880039E-8
         5040.857     1.890280E-8
         5044.232     1.900584E-8
         5047.605     1.910914E-8
         5050.982     1.921278E-8
          5054.36     1.931665E-8
         5057.741     1.942088E-8
         5061.124     1.952552E-8
         5064.509     1.963063E-8
         5067.894     1.973602E-8
         5071.287     1.984197E-8
         5074.679     1.994821E-8
         5078.073     2.005480E-8
          5081.47     2.016165E-8
         5084.866     2.026865E-8
          5088.27     2.037617E-8
         5091.673     2.048410E-8
         5095.079     2.059253E-8
         5098.487     2.070133E-8
         5101.897     2.081971E-8
          5105.31     2.094590E-8
         5108.725     2.107255E-8
         5112.142     2.119971E-8
         5115.562     2.132735E-8
         5118.983     2.145545E-8
         5122.407     2.158401E-8
         5125.833     2.171302E-8
         5129.262     2.184249E-8
         5132.693     2.197231E-8
         5136.126     2.210256E-8
         5139.562     2.223329E-8
         5142.996     2.236452E-8
         5146.439     2.249649E-8
         5149.881     2.262883E-8
         5153.326     2.276171E-8
         5156.773     2.289505E-8
         5160.222     2.302888E-8
         5163.674     2.316314E-8
         5167.128     2.329790E-8
         5170.584     2.343314E-8
         5174.042     2.356890E-8
           5177.5     2.370505E-8
         5180.966     2.384181E-8
         5184.432     2.397876E-8
           5187.9     2.411618E-8
          5191.37     2.425417E-8
         5194.842     2.439282E-8
         5198.317     2.453195E-8
         5201.794     2.457788E-8
         5205.273     2.453559E-8
         5208.755     2.449279E-8
         5212.236     2.444963E-8
         5215.726     2.440597E-8
         5219.214     2.436180E-8
         5222.705     2.431693E-8
         5226.199     2.427146E-8
         5229.694     2.422546E-8
         5233.192     2.417891E-8
         5236.692     2.413184E-8
         5240.195     2.408422E-8
           5243.7     2.403606E-8
         5247.205     2.398739E-8
         5250.718     2.393816E-8
         5254.229     2.388863E-8
         5257.744     2.383856E-8
         5261.261     2.378777E-8
         5264.777     2.373612E-8
         5268.302     2.368386E-8
         5271.825     2.363123E-8
         5275.352     2.357817E-8
          5278.88     2.352455E-8
         5282.408     2.347043E-8
         5285.944     2.341568E-8
          5289.48     2.336042E-8
         5293.018     2.330437E-8
         5296.559     2.324774E-8
         5300.099     2.318873E-8
         5303.646     2.306367E-8
         5307.194     2.293780E-8
         5310.744     2.281104E-8
         5314.293     2.268366E-8
         5317.848     2.255524E-8
         5321.408     2.242561E-8
         5324.967     2.229489E-8
         5328.529     2.216327E-8
         5332.093     2.203081E-8
         5335.657     2.189759E-8
         5339.229     2.176323E-8
           5342.8     2.162804E-8
         5346.374     2.149192E-8
         5349.947     2.135495E-8
         5353.525     2.121677E-8
         5357.109     2.107750E-8
         5360.689     2.093753E-8
         5364.275     2.079643E-8
         5367.866     2.065429E-8
         5371.454     2.051134E-8
         5375.049     2.036712E-8
         5378.642     2.022219E-8
         5382.242     2.007616E-8
         5385.839     1.992947E-8
         5389.442     1.978171E-8
          5393.05     1.963267E-8
         5396.654     1.948289E-8
         5400.264     1.933612E-8
         5403.879     1.924056E-8
          5407.49     1.914450E-8
          5411.11     1.904759E-8
         5414.727     1.895017E-8
         5418.352     1.885189E-8
         5421.976     1.875291E-8
         5425.596     1.865331E-8
         5429.231     1.855269E-8
          5432.86     1.845163E-8
         5436.494     1.834982E-8
         5440.133     1.824722E-8
         5443.772     1.814401E-8
         5447.413     1.804012E-8
         5451.054     1.793556E-8
         5454.703     1.782998E-8
         5458.352     1.772380E-8
            5462.     1.761703E-8
         5465.656     1.750939E-8
         5469.309     1.740123E-8
         5472.967     1.729209E-8
         5476.628     1.718224E-8
         5480.294     1.707160E-8
          5483.96     1.696034E-8
         5487.622     1.684859E-8
         5491.298     1.673574E-8
         5494.971     1.662240E-8
         5498.644     1.650841E-8
         5502.325     1.647510E-8
         5506.002     1.648916E-8
         5509.685     1.650315E-8
         5513.371     1.651702E-8
         5517.061     1.653081E-8
         5520.751     1.654453E-8
         5524.438     1.655816E-8
         5528.139     1.657176E-8
         5531.837     1.658516E-8
         5535.534     1.659839E-8
          5539.24     1.661157E-8
         5542.942     1.662450E-8
         5546.652     1.663735E-8
         5550.359     1.665012E-8
         5554.075     1.666299E-8
          5557.79     1.667579E-8
         5561.501     1.668840E-8
         5565.228     1.670088E-8
          5568.95     1.671326E-8
         5572.672     1.672555E-8
         5576.402     1.673779E-8
         5580.129     1.674993E-8
         5583.865     1.676183E-8
         5587.597     1.677362E-8
         5591.334     1.678536E-8
         5595.074     1.679702E-8
         5598.813     1.680859E-8
         5602.562     1.688412E-8
         5606.309     1.698941E-8
         5610.062     1.709506E-8
         5613.808     1.720068E-8
         5617.566     1.730683E-8
         5621.327     1.741311E-8
         5625.083     1.751932E-8
         5628.846     1.762586E-8
         5632.614     1.773276E-8
         5636.375     1.783965E-8
         5640.146     1.794698E-8
         5643.918     1.805450E-8
         5647.696     1.816234E-8
         5651.474     1.827037E-8
         5655.254     1.837869E-8
         5659.037     1.848725E-8
         5662.825     1.859613E-8
         5666.607     1.870501E-8
           5670.4     1.881438E-8
         5674.193     1.892363E-8
         5677.988     1.903314E-8
         5681.786     1.914293E-8
          5685.59     1.925310E-8
         5689.387     1.936324E-8
         5693.192     1.947373E-8
            5697.     1.958446E-8
         5700.814     1.970836E-8
         5704.627     1.987970E-8
         5708.443     2.005147E-8
         5712.264     2.022378E-8
         5716.079     2.039606E-8
         5719.902     2.056905E-8
         5723.728     2.074238E-8
          5727.56     2.091625E-8
         5731.391     2.109042E-8
         5735.228     2.126519E-8
         5739.063     2.144022E-8
         5742.896     2.161514E-8
         5746.737     2.179069E-8
         5750.584     2.196683E-8
         5754.431     2.214348E-8
          5758.28     2.232056E-8
         5762.131     2.249805E-8
         5765.982     2.267582E-8
         5769.839     2.285415E-8
         5773.699     2.303256E-8
         5777.561     2.321137E-8
         5781.428     2.339085E-8
         5785.295     2.357082E-8
         5789.165     2.375120E-8
         5793.034     2.393157E-8
         5796.909     2.411242E-8
         5800.786     2.431258E-8
         5804.669     2.458789E-8
         5808.552     2.486363E-8
         5812.438     2.513980E-8
         5816.325     2.541647E-8
         5820.212     2.569360E-8
         5824.105     2.597189E-8
         5828.001     2.625085E-8
         5831.902     2.653056E-8
         5835.803     2.681053E-8
         5839.707     2.709115E-8
         5843.609     2.737258E-8
         5847.518     2.765493E-8
          5851.43     2.793782E-8
         5855.343     2.822104E-8
         5859.263     2.850519E-8
         5863.182     2.879004E-8
         5867.104     2.907564E-8
         5871.025     2.936168E-8
         5874.952     2.964856E-8
         5878.882     2.993614E-8
         5882.814     3.022442E-8
         5886.752     3.051366E-8
          5890.69     3.080330E-8
          5894.63     3.109354E-8
          5898.57     3.138426E-8
         5902.515     3.157446E-8
         5906.463     3.170732E-8
         5910.414     3.184053E-8
         5914.371     3.197446E-8
         5918.327     3.210857E-8
         5922.285     3.224265E-8
         5926.243     3.237669E-8
         5930.207     3.251114E-8
         5934.174     3.264625E-8
         5938.143     3.278164E-8
         5942.118     3.291739E-8
         5946.093     3.305330E-8
         5950.066     3.318935E-8
         5954.046     3.332569E-8
         5958.029     3.346231E-8
         5962.014     3.359942E-8
         5966.002     3.373702E-8
         5969.996     3.387504E-8
         5973.989     3.401267E-8
         5977.982     3.415047E-8
          5981.98     3.428887E-8
         5985.981     3.442778E-8
         5989.985     3.456697E-8
         5993.995     3.470649E-8
         5998.004     3.484619E-8
         6002.017     3.484413E-8
         6006.028     3.470158E-8
         6010.045     3.455877E-8
         6014.065     3.441624E-8
         6018.088     3.427356E-8
         6022.113     3.413069E-8
         6026.145     3.398754E-8
         6030.172     3.384448E-8
         6034.206     3.370116E-8
         6038.242     3.355769E-8
         6042.281     3.341406E-8
         6046.322     3.327027E-8
          6050.37     3.312625E-8
         6054.417     3.298247E-8
         6058.463     3.283867E-8
         6062.516     3.269437E-8
          6066.57     3.254980E-8
         6070.628     3.240513E-8
         6074.689     3.226063E-8
         6078.752     3.211601E-8
         6082.821     3.197102E-8
         6086.887     3.182609E-8
         6090.958     3.168091E-8
         6095.032     3.153562E-8
         6099.109     3.139019E-8
         6103.188     3.122686E-8
         6107.274     3.105824E-8
         6111.356     3.088974E-8
         6115.444     3.072090E-8
         6119.534     3.055190E-8
         6123.627     3.038278E-8
         6127.724     3.021349E-8
         6131.822     3.004399E-8
         6135.927     2.987415E-8
         6140.028     2.970438E-8
         6144.135     2.953468E-8
         6148.245     2.936480E-8
         6152.357     2.919453E-8
         6156.472     2.902391E-8
          6160.59     2.885315E-8
         6164.711     2.868224E-8
         6168.834     2.851119E-8
          6172.96     2.833990E-8
         6177.089     2.816842E-8
         6181.221     2.799675E-8
         6185.355     2.782491E-8
         6189.493     2.765289E-8
         6193.633     2.748075E-8
         6197.776     2.730845E-8
         6201.921     2.728359E-8
         6206.069     2.742970E-8
         6210.221     2.757595E-8
         6214.375     2.772196E-8
         6218.531     2.786811E-8
         6222.691     2.801467E-8
         6226.853     2.816148E-8
         6231.018     2.830832E-8
         6235.186     2.845492E-8
         6239.356     2.860168E-8
          6243.53     2.874885E-8
         6247.706     2.889621E-8
         6251.885     2.904356E-8
         6256.066     2.919087E-8
         6260.251     2.933829E-8
         6264.438     2.948539E-8
         6268.629     2.963262E-8
         6272.822     2.978024E-8
         6277.018     2.992814E-8
         6281.216     3.007603E-8
         6285.417     3.022374E-8
         6289.622     3.037157E-8
         6293.829     3.051949E-8
         6298.039     3.066754E-8
         6302.251     3.088303E-8
         6306.466     3.115744E-8
         6310.685     3.143204E-8
         6314.906     3.170660E-8
          6319.13     3.198140E-8
         6323.356     3.225632E-8
         6327.586     3.253144E-8
         6331.818     3.280680E-8
         6336.054     3.308238E-8
         6340.292     3.335812E-8
         6344.533     3.363370E-8
         6348.776     3.390948E-8
         6353.023     3.418548E-8
         6357.272     3.446171E-8
         6361.524     3.473795E-8
          6365.78     3.501414E-8
         6370.038     3.529053E-8
         6374.298     3.556713E-8
         6378.562     3.584393E-8
         6382.829     3.612095E-8
         6387.098     3.639817E-8
          6391.37     3.667542E-8
         6395.645     3.695252E-8
         6399.923     3.722984E-8
         6404.204     3.745437E-8
         6408.487     3.767803E-8
         6412.774     3.790189E-8
         6417.063     3.812590E-8
         6421.355     3.834988E-8
         6425.651     3.857369E-8
         6429.949     3.879761E-8
          6434.25     3.902159E-8
         6438.553     3.924570E-8
          6442.86     3.946969E-8
         6447.169     3.969368E-8
         6451.482     3.991781E-8
         6455.797     4.014209E-8
         6460.115     4.036645E-8
         6464.437     4.058993E-8
          6468.76     4.081353E-8
         6473.087     4.103724E-8
         6477.417     4.126110E-8
          6481.75     4.148505E-8
         6486.085     4.170911E-8
         6490.423     4.193321E-8
         6494.765     4.215645E-8
         6499.109     4.237980E-8
         6503.456     4.285774E-8
         6507.806     4.340042E-8
         6512.159     4.394191E-8
         6516.515     4.448207E-8
         6520.874     4.502120E-8
         6525.235     4.555877E-8
           6529.6     4.609533E-8
         6533.967     4.663034E-8
         6538.338     4.716432E-8
         6542.711     4.769731E-8
         6547.087     4.822921E-8
         6551.467     4.875989E-8
         6555.849     4.928901E-8
         6560.234     4.981711E-8
         6564.622     5.034429E-8
         6569.013     5.087036E-8
         6573.407     5.139429E-8
         6577.804     5.191683E-8
         6582.203     5.243861E-8
         6586.606     5.295975E-8
         6591.012     5.347965E-8
          6595.42     5.399797E-8
         6599.832     5.451518E-8
         6604.247     5.561458E-8
         6608.664     5.673467E-8
         6613.084     5.785216E-8
         6617.507     5.896714E-8
         6621.934     6.008027E-8
         6626.363     6.119147E-8
         6630.795     6.230006E-8
          6635.23     6.340499E-8
         6639.669     6.450768E-8
          6644.11     6.560887E-8
         6648.554     6.670790E-8
         6653.001     6.780324E-8
         6657.451     6.889569E-8
         6661.904     6.998617E-8
          6666.36     7.107487E-8
         6670.819     7.216101E-8
         6675.281     7.324410E-8
         6679.746     7.432475E-8
         6684.214     7.540309E-8
         6688.685     7.647889E-8
         6693.159     7.755171E-8
         6697.636     7.862165E-8
         6702.116     9.724509E-8
         6706.599     1.354338E-7
         6711.084     1.821011E-7
         6715.574     2.555027E-7
         6720.065     3.287421E-7
         6724.561     4.018361E-7
         6729.058     4.747679E-7
         6733.559     5.475473E-7
         6738.063     6.201684E-7
         6742.566     6.925783E-7
          6747.08     7.649490E-7
         6751.593     8.629589E-7
         6756.109     1.008081E-6
         6760.628     1.163061E-6
          6765.15     1.380621E-6
         6769.675     1.597677E-6
           6774.2     1.881778E-6
         6778.734     2.170953E-6
         6783.269     2.511765E-6
         6787.806     2.872127E-6
         6792.346     3.231726E-6
         6796.889     3.590485E-6
         6801.436     4.017271E-6
         6805.981     4.591634E-6
         6810.538     5.174189E-6
         6815.093     5.818842E-6
         6819.651     6.462105E-6
         6824.213     7.371189E-6
         6828.777     8.300313E-6
         6833.341     9.226643E-6
         6837.912     1.015165E-5
         6842.489     1.131076E-5
         6847.066     1.266373E-5
         6851.646     1.403933E-5
         6856.229     1.545804E-5
         6860.815     1.695009E-5
           6865.4     1.879155E-5
         6869.996     2.063163E-5
         6874.591     2.253806E-5
          6879.19     2.444031E-5
         6883.791     2.680996E-5
         6888.396     2.927512E-5
         6893.003     3.168796E-5
          6897.61     3.406850E-5
         6902.224     3.675487E-5
         6906.844     3.976971E-5
         6911.464     4.272985E-5
         6916.087     4.558644E-5
         6920.713     4.852395E-5
         6925.342     5.193563E-5
          6929.97     5.533667E-5
         6934.609     5.838337E-5
         6939.248     6.141829E-5
          6943.89     6.486099E-5
         6948.534     6.837556E-5
         6953.182     7.159109E-5
         6957.829     7.466315E-5
         6962.483     7.795671E-5
         6967.144     8.144334E-5
         6971.804     8.478255E-5
         6976.467     8.789820E-5
         6981.134     9.109175E-5
         6985.803     9.454390E-5
         6990.472     9.795666E-5
         6995.148     1.011115E-4
         6999.827     1.042585E-4
         7004.513     1.078631E-4
         7009.198     1.114678E-4
         7013.886     1.148253E-4
         7018.578     1.181209E-4
         7023.268     1.218860E-4
         7027.966     1.258504E-4
         7032.671     1.296063E-4
         7037.375     1.331947E-4
         7042.082     1.368286E-4
         7046.792     1.405234E-4
         7051.502     1.444209E-4
         7056.218     1.487755E-4
         7060.938     1.530305E-4
         7065.661     1.569384E-4
         7070.391     1.608671E-4
          7075.12     1.651528E-4
         7079.853     1.694208E-4
         7084.584     1.730741E-4
         7089.323     1.766955E-4
         7094.065     1.805952E-4
         7098.814     1.845307E-4
         7103.563     1.879386E-4
         7108.313     1.911624E-4
         7113.068     1.944602E-4
         7117.822     1.977886E-4
         7122.583     2.005942E-4
         7127.347     2.029573E-4
         7132.119     2.053132E-4
         7136.889     2.076580E-4
         7141.663     2.096418E-4
         7146.432     2.109599E-4
         7151.216     2.122413E-4
         7155.999     2.134183E-4
         7160.786     2.144911E-4
          7165.58     2.150599E-4
         7170.372     2.155937E-4
         7175.168     2.157613E-4
         7179.964     2.159263E-4
         7184.766     2.154325E-4
         7189.572     2.149339E-4
         7194.381     2.139604E-4
         7199.197     2.129417E-4
         7204.013     2.117629E-4
         7208.831     2.105544E-4
         7213.645     2.091049E-4
         7218.474     2.075768E-4
         7223.302     2.058345E-4
         7228.134     2.039960E-4
         7232.973     2.018410E-4
         7237.811     1.994940E-4
         7242.644     1.972311E-4
         7247.492     1.950303E-4
          7252.34     1.925274E-4
         7257.191     1.897010E-4
         7262.045     1.869382E-4
         7266.907     1.842574E-4
         7271.768     1.814495E-4
         7276.624     1.784146E-4
         7281.495     1.753823E-4
         7286.365     1.723617E-4
         7291.239     1.692877E-4
         7296.116     1.660377E-4
            7301.     1.628356E-4
         7305.883     1.597990E-4
         7310.762     1.567095E-4
         7315.656     1.532536E-4
         7320.549     1.498342E-4
         7325.446     1.465926E-4
          7330.35     1.433381E-4
         7335.253     1.398097E-4
         7340.151     1.363098E-4
         7345.061     1.331199E-4
         7349.978     1.299391E-4
         7354.894     1.263398E-4
         7359.814     1.227517E-4
         7364.737     1.197160E-4
         7369.667     1.167103E-4
         7374.588     1.132621E-4
         7379.521     1.097874E-4
         7384.461     1.067145E-4
           7389.4     1.036974E-4
         7394.343     1.004227E-4
         7399.293     9.712042E-5
         7404.242     9.414933E-5
         7409.187     9.124685E-5
         7414.143     8.814584E-5
         7419.105     8.501445E-5
         7424.068     8.224710E-5
         7429.034     7.956701E-5
         7434.007     7.670074E-5
         7438.971     7.380640E-5
         7443.947     7.120425E-5
         7448.926     6.868685E-5
         7453.913     6.603658E-5
         7458.898     6.336014E-5
         7463.888     6.097409E-5
         7468.884     5.867468E-5
         7473.872     5.629740E-5
         7478.871     5.389903E-5
         7483.877     5.178485E-5
         7488.883     4.976090E-5
         7493.893     4.760735E-5
         7498.905     4.542285E-5
         7503.921     4.357043E-5
         7508.936     4.181671E-5
         7513.958     3.992936E-5
         7518.989     3.801043E-5
         7524.018     3.633506E-5
         7529.051     3.472516E-5
         7534.086     3.307439E-5
          7539.13     3.141759E-5
         7544.165     3.001220E-5
         7549.211     2.866018E-5
         7554.265     2.726353E-5
         7559.317     2.586464E-5
         7564.374     2.462146E-5
         7569.433     2.340667E-5
         7574.492     2.219774E-5
         7579.559     2.099279E-5
         7584.633     2.005410E-5
         7589.706     1.914495E-5
         7594.782     1.813179E-5
         7599.862     1.711605E-5
         7604.946     1.627091E-5
         7610.028     1.543489E-5
         7615.119     1.465809E-5
         7620.212     1.388685E-5
         7625.313     1.317252E-5
         7630.414     1.246627E-5
         7635.518     1.181485E-5
         7640.625     1.117985E-5
         7645.731     1.064660E-5
         7650.846     1.010582E-5
         7655.967     9.520149E-6
         7661.088     8.973056E-6
         7666.212     8.560000E-6
          7671.34     8.134120E-6
         7676.467     7.669390E-6
         7681.602     7.240845E-6
          7686.74     6.890333E-6
         7691.886     6.540973E-6
         7697.031     6.193400E-6
         7702.179     5.870612E-6
         7707.331     5.580891E-6
         7712.482     5.292652E-6
         7717.641     5.005408E-6
         7722.803     4.749060E-6
         7727.973     4.518543E-6
         7733.142     4.289212E-6
         7738.314     4.060850E-6
          7743.49     3.870060E-6
         7748.666     3.697844E-6
         7753.849     3.526228E-6
         7759.035     3.355371E-6
         7764.229     3.185103E-6
         7769.422     3.015724E-6
         7774.619     2.847090E-6
         7779.815     2.679340E-6
         7785.019     2.563658E-6
         7790.226     2.450385E-6
         7795.437     2.337601E-6
         7800.655     2.225228E-6
         7805.873     2.113441E-6
         7811.094     2.002149E-6
         7816.314     1.891448E-6
         7821.543     1.796674E-6
         7826.774     1.739363E-6
          7832.01     1.682296E-6
         7837.252     1.625438E-6
         7842.495     1.568873E-6
         7847.741     1.512554E-6
         7852.985     1.456536E-6
         7858.238     1.400716E-6
         7863.494     1.310719E-6
         7868.754     1.203802E-6
         7874.021     1.176121E-6
         7879.289     1.172937E-6
         7884.554     1.125367E-6
         7889.828     1.071040E-6
         7895.105     9.713305E-7
         7900.386     8.761897E-7
         7905.675     8.527348E-7
         7910.963     8.294047E-7
         7916.254     8.061782E-7
         7921.545     7.830715E-7
         7926.844     7.600517E-7
         7932.146     7.371338E-7
         7937.452     7.143205E-7
         7942.761     6.916106E-7
         7948.078     6.689833E-7
         7953.394     6.464811E-7
          7958.71     6.240962E-7
         7964.033     6.017992E-7
          7969.36     5.796031E-7
         7974.691     5.575101E-7
         7980.025     5.355193E-7
         7985.367     5.136159E-7
         7990.704     4.918484E-7
         7996.048     4.701658E-7
         8001.397     4.513905E-7
         8006.749     4.406389E-7
         8012.104     4.299548E-7
         8017.468     4.193283E-7
         8022.831     4.087786E-7
         8028.193     3.983025E-7
         8033.563     3.878864E-7
         8038.936     3.775365E-7
         8044.313     3.672538E-7
         8049.694     3.570370E-7
         8055.078     3.468875E-7
          8060.47     3.367966E-7
         8065.857     3.267884E-7
         8071.252     3.168384E-7
         8076.651     3.069542E-7
         8082.054     2.971369E-7
         8087.459     2.873867E-7
         8092.874     2.776944E-7
         8098.287     2.680767E-7
         8103.699     2.615322E-7
         8109.119     2.564106E-7
         8114.543     2.513217E-7
         8119.971     2.462651E-7
         8125.402     2.412408E-7
         8130.837     2.362485E-7
         8136.276     2.312890E-7
         8141.718     2.263618E-7
         8147.164     2.214659E-7
         8152.613     2.166030E-7
         8158.066     2.117721E-7
         8163.523     2.069733E-7
         8168.988     2.022029E-7
         8174.448     1.974722E-7
         8179.916     1.927692E-7
         8185.387     1.880991E-7
         8190.862     1.834606E-7
         8196.341     1.788536E-7
         8201.823     1.749185E-7
         8207.313     1.722874E-7
         8212.799     1.696766E-7
         8218.292     1.670798E-7
         8223.789     1.644993E-7
          8229.29     1.619346E-7
         8234.794     1.593866E-7
         8240.303     1.568540E-7
         8245.814     1.543379E-7
         8251.329     1.518381E-7
         8256.849     1.493535E-7
         8262.371     1.468855E-7
         8267.898     1.444332E-7
         8273.429     1.419974E-7
         8278.962     1.395778E-7
           8284.5     1.371738E-7
         8290.041     1.347860E-7
         8295.586     1.324142E-7
         8301.135     1.301807E-7
         8306.688     1.284369E-7
         8312.244     1.267037E-7
         8317.804     1.249818E-7
         8323.367     1.232703E-7
         8328.935     1.215692E-7
         8334.506     1.198791E-7
          8340.08     1.181999E-7
         8345.659     1.165307E-7
         8351.241     1.149450E-7
         8356.827     1.136190E-7
         8362.417     1.122956E-7
         8368.011     1.109748E-7
         8373.607     1.096565E-7
         8379.208     1.083405E-7
         8384.813     1.070272E-7
         8390.422     1.057168E-7
         8396.034     1.044086E-7
         8401.649     1.030202E-7
          8407.27     1.014349E-7
         8412.893     9.985366E-8
          8418.52     9.827624E-8
         8424.151     9.670241E-8
         8429.786     9.513273E-8
         8435.424     9.356737E-8
         8441.066     9.200570E-8
         8446.713     9.044808E-8
         8452.362     8.889499E-8
         8458.016     8.734630E-8
         8463.674     8.580135E-8
         8469.335     8.426079E-8
            8475.     8.272455E-8
         8480.668     8.119295E-8
         8486.341     7.966551E-8
         8492.018     7.814253E-8
         8497.697     7.662435E-8
         8503.381     7.552138E-8
         8509.069     7.470040E-8
         8514.761     7.388140E-8
         8520.456     7.306423E-8
         8526.155     7.224895E-8
         8531.858     7.143557E-8
         8537.564     7.062423E-8
         8543.275     6.981474E-8
          8548.99     6.900719E-8
         8554.708     6.820181E-8
         8560.431     6.739830E-8
         8566.156     6.659699E-8
         8571.886     6.579772E-8
         8577.619     6.500060E-8
         8583.356     6.420540E-8
         8589.098     6.341219E-8
         8594.843     6.262162E-8
         8600.592     6.181102E-8
         8606.345     6.080901E-8
         8612.102     5.981038E-8
         8617.862     5.881515E-8
         8623.621     5.782443E-8
         8629.395     5.683536E-8
         8635.166     5.585082E-8
         8640.942     5.486968E-8
         8646.722     5.389234E-8
         8652.506     5.291601E-8
         8658.293     5.194046E-8
         8664.085     5.096868E-8
          8669.88     5.000107E-8
         8675.679     4.903752E-8
         8681.481     4.807803E-8
         8687.289     4.712243E-8
           8693.1     4.617113E-8
         8698.914     4.522400E-8
         8704.728     4.476015E-8
         8710.555     4.440652E-8
         8716.382     4.405370E-8
         8722.212     4.370153E-8
         8728.046     4.334997E-8
         8733.884     4.299901E-8
         8739.721     4.264896E-8
         8745.571     4.229893E-8
         8751.421     4.194983E-8
         8757.275     4.160134E-8
         8763.133     4.125356E-8
         8768.994     4.090644E-8
         8774.859     4.056000E-8
         8780.724     4.021451E-8
         8786.602     3.986914E-8
         8792.479     3.952470E-8
          8798.36     3.918102E-8
         8804.245     3.883651E-8
         8810.135     3.849209E-8
         8816.027     3.814849E-8
         8821.919     3.780593E-8
         8827.825     3.746350E-8
         8833.729     3.712218E-8
         8839.639     3.678159E-8
         8845.551     3.644190E-8
         8851.468     3.610295E-8
         8857.384     3.576505E-8
         8863.308     3.542778E-8
         8869.241     3.509100E-8
         8875.174     3.475535E-8
          8881.11     3.442056E-8
         8887.051     3.408665E-8
         8892.995     3.375362E-8
         8898.938     3.342172E-8
         8904.891     3.313777E-8
         8910.852     3.286432E-8
         8916.813     3.259152E-8
         8922.776     3.231917E-8
         8928.745     3.204720E-8
         8934.717     3.177574E-8
         8940.688     3.150490E-8
         8946.669     3.123429E-8
         8952.658     3.096244E-8
         8958.646     3.068953E-8
         8964.639     3.041710E-8
         8970.635     3.014526E-8
          8976.63     2.987417E-8
         8982.634     2.960342E-8
         8988.643     2.933321E-8
          8994.66     2.906332E-8
         9000.676     2.891559E-8
         9006.696     2.972201E-8
         9012.721     3.051922E-8
         9018.744     3.130651E-8
         9024.776     3.208513E-8
         9030.818     3.285509E-8
         9036.858     3.361486E-8
         9042.903     3.436524E-8
         9048.952     3.510606E-8
         9055.005     3.583724E-8
         9061.057     3.655812E-8
         9067.117     3.726979E-8
         9073.182     3.797162E-8
         9079.256     3.866421E-8
         9085.329     3.934627E-8
         9091.405     4.001819E-8
         9097.481     4.067961E-8
         9103.567     4.059001E-8
         9109.656     3.997733E-8
         9115.749     3.936791E-8
         9121.852     3.876123E-8
         9127.953     3.815840E-8
         9134.059     3.755893E-8
         9140.163     3.696331E-8
         9146.277     3.637059E-8
         9152.395     3.578139E-8
         9158.521     3.519509E-8
         9164.647     3.461278E-8
         9170.777     3.403403E-8
         9176.912     3.345873E-8
         9183.045     3.288757E-8
         9189.188     3.231945E-8
         9195.334     3.175499E-8
         9201.484     3.130315E-8
         9207.644     3.119400E-8
         9213.803     3.108293E-8
         9219.961     3.096997E-8
         9226.128     3.085487E-8
         9232.299     3.073774E-8
         9238.475     3.061856E-8
         9244.653     3.049736E-8
         9250.843     3.037358E-8
          9257.03     3.024534E-8
         9263.217     3.011514E-8
         9269.413     2.998273E-8
         9275.613     2.984827E-8
         9281.817     2.971174E-8
         9288.025     2.957314E-8
         9294.243     2.943228E-8
          9300.46     2.932049E-8
         9306.676     2.959198E-8
           9312.9     2.985509E-8
          9319.13     3.010961E-8
         9325.363     3.035542E-8
         9331.601     3.059252E-8
         9337.848     3.082106E-8
         9344.089     3.104040E-8
         9350.339     3.125103E-8
         9356.593     3.145273E-8
         9362.852     3.164549E-8
         9369.114     3.182920E-8
         9375.386     3.200392E-8
         9381.657     3.216941E-8
         9387.927     3.232567E-8
         9394.206     3.247269E-8
          9400.49     3.261617E-8
         9406.777     3.281825E-8
         9413.069     3.300946E-8
         9419.366     3.318974E-8
         9425.672     3.335922E-8
         9431.971     3.351749E-8
          9438.28     3.366502E-8
         9444.593     3.380127E-8
          9450.91     3.392635E-8
         9457.231     3.404034E-8
         9463.563     3.414312E-8
         9469.893     3.423445E-8
         9476.222     3.431412E-8
         9482.561     3.438237E-8
         9488.903     3.443908E-8
          9495.25     3.448428E-8
         9501.602     3.485543E-8
         9507.962     3.620600E-8
         9514.316     3.752460E-8
          9520.68     3.881430E-8
         9527.048     4.007447E-8
         9533.421     4.130485E-8
         9539.798     4.250530E-8
         9546.179     4.367595E-8
         9552.569     4.481780E-8
         9558.953     4.592797E-8
         9565.347     4.700942E-8
         9571.745     4.806133E-8
         9578.147     4.908365E-8
         9584.554     5.007617E-8
         9590.965     5.103913E-8
         9597.386     5.197331E-8
           9603.8     5.307552E-8
         9610.224     5.428079E-8
         9616.651     5.544955E-8
         9623.084     5.658195E-8
         9629.521     5.767787E-8
         9635.962     5.873757E-8
         9642.407     5.976085E-8
         9648.856     6.074777E-8
         9655.311     6.169851E-8
         9661.769     6.261296E-8
         9668.231     6.349134E-8
         9674.698     6.433351E-8
         9681.169     6.513951E-8
          9687.64     6.590894E-8
         9694.125     6.664357E-8
         9700.609     6.747381E-8
         9707.098     6.952443E-8
         9713.591     7.150512E-8
         9720.088     7.341566E-8
         9726.589     7.525604E-8
         9733.095     7.702685E-8
         9739.605     7.872811E-8
          9746.12     8.035938E-8
         9752.639     8.190973E-8
         9759.162     8.337340E-8
          9765.69     8.476649E-8
         9772.217     8.608797E-8
         9778.753     8.734044E-8
           9785.3     8.852401E-8
         9791.845     8.963656E-8
         9798.395     9.067942E-8
         9804.948     9.291082E-8
         9811.507     9.543677E-8
         9818.063     9.784044E-8
         9824.631     1.001268E-7
         9831.208     1.022955E-7
         9837.784     1.043433E-7
         9844.364     1.062722E-7
         9850.949     1.080827E-7
         9857.538     1.097749E-7
         9864.126     1.113479E-7
         9870.729     1.128059E-7
         9877.332     1.141453E-7
         9883.938     1.153677E-7
          9890.55     1.164734E-7
         9897.165     1.174628E-7
         9903.779     1.192235E-7
         9910.404     1.214900E-7
         9917.033     1.235819E-7
         9923.672     1.255001E-7
          9930.31     1.272421E-7
         9936.952     1.288106E-7
         9943.599     1.302060E-7
         9950.244     1.314281E-7
         9956.899     1.324784E-7
         9963.564     1.333577E-7
         9970.229     1.340652E-7
         9976.898     1.346020E-7
         9983.571     1.349690E-7
         9990.249     1.351667E-7
         9996.926     1.351949E-7
         10003.61     1.238005E-7
          10010.3     1.062694E-7
           10017.     1.521686E-7
          10023.7     1.707895E-7
         10030.42     1.713109E-7
         10037.11     2.190134E-7
         10043.83     2.000688E-7
         10050.55     1.384037E-7
         10057.27     1.361590E-7
           10064.     1.480065E-7
         10070.73     1.668680E-7
         10077.47     1.686628E-7
          10084.2     1.815784E-7
         10090.95     1.969225E-7
          10097.7     1.891337E-7
         10104.45     1.758549E-7
         10111.21     1.608212E-7
         10117.97     1.496294E-7
         10124.75     1.702040E-7
         10131.51     1.949629E-7
         10138.29     1.913133E-7
         10145.07     1.963391E-7
         10151.86     1.987379E-7
         10158.65     1.874384E-7
         10165.44     1.968787E-7
         10172.25     2.013460E-7
         10179.05     1.867721E-7
         10185.86     1.903361E-7
         10192.67     2.003950E-7
         10199.49     2.159005E-7
         10206.31     2.097207E-7
         10213.14     2.048714E-7
         10219.97     2.034022E-7
          10226.8     2.198579E-7
         10233.64     2.087384E-7
         10240.49     1.789160E-7
         10247.34     2.000345E-7
         10254.19     2.166037E-7
         10261.05     2.271953E-7
         10267.91     2.214989E-7
         10274.78     2.140612E-7
         10281.66     2.065967E-7
         10288.53     2.011128E-7
         10295.41     2.031011E-7
          10302.3     2.051467E-7
         10309.19     2.038281E-7
         10316.09     2.099661E-7
         10322.99     2.155227E-7
         10329.89     2.192627E-7
          10336.8     1.931071E-7
         10343.72     1.853438E-7
         10350.63     1.923837E-7
         10357.56     1.986109E-7
         10364.49     1.916286E-7
         10371.42     1.819743E-7
         10378.36     1.867823E-7
          10385.3     1.860347E-7
         10392.24     1.800451E-7
          10399.2     1.671711E-7
         10406.15     1.744715E-7
         10413.11     1.730013E-7
         10420.08     1.592455E-7
         10427.05     1.581546E-7
         10434.02     1.538804E-7
           10441.     1.465431E-7
         10447.98     1.338579E-7
         10454.97     1.366602E-7
         10461.96     1.404355E-7
         10468.96     1.340401E-7
         10475.97     1.282127E-7
         10482.97     1.192948E-7
         10489.98     1.067745E-7
           10497.     1.090935E-7
         10504.02     1.071242E-7
         10511.05     1.029931E-7
         10518.08     1.000155E-7
         10525.11     9.977617E-8
         10532.15     1.003061E-7
          10539.2     1.003590E-7
         10546.25     9.984400E-8
          10553.3     1.008494E-7
         10560.36     1.033143E-7
         10567.42     1.008963E-7
         10574.49     1.030229E-7
         10581.57     1.058967E-7
         10588.64     1.028702E-7
         10595.73     1.032420E-7
         10602.81     1.033113E-7
         10609.91     1.018170E-7
           10617.     9.790806E-8
          10624.1     9.488862E-8
         10631.21     9.284251E-8
         10638.32     9.234669E-8
         10645.44     9.595215E-8
         10652.56     9.837512E-8
         10659.68     9.674205E-8
         10666.81     9.226690E-8
         10673.95     8.985339E-8
         10681.09     8.880072E-8
         10688.23     8.603762E-8
         10695.38     8.567187E-8
         10702.54     8.627656E-8
         10709.69     8.726281E-8
         10716.86     8.499418E-8
         10724.03     8.321670E-8
          10731.2     8.190260E-8
         10738.38     8.057345E-8
         10745.56     8.050917E-8
         10752.75     7.974542E-8
         10759.94     7.738289E-8
         10767.14     7.505606E-8
         10774.34     7.384378E-8
         10781.54     7.255549E-8
         10788.76     6.858286E-8
         10795.97     6.769932E-8
         10803.19     6.702179E-8
         10810.42     6.582777E-8
         10817.65     6.413508E-8
         10824.89     6.310954E-8
         10832.13     6.166061E-8
         10839.37     5.857637E-8
         10846.62     5.640112E-8
         10853.88     5.457231E-8
         10861.14     5.305611E-8
          10868.4     5.205078E-8
         10875.67     5.070669E-8
         10882.95     4.926786E-8
         10890.23     4.780080E-8
         10897.52     4.565076E-8
          10904.8     4.366719E-8
         10912.09     4.209954E-8
         10919.39     4.131403E-8
          10926.7     3.924789E-8
           10934.     3.697094E-8
         10941.32     3.503742E-8
         10948.64     3.485517E-8
         10955.96     3.234513E-8
         10963.29     3.004074E-8
         10970.62     2.852832E-8
         10977.96     2.723010E-8
          10985.3     2.600319E-8
         10992.65     2.418055E-8
           11000.     2.139837E-8
