#  Table pcf450wsys.tab  Mon 12:21:12 02-Jun-97

#      WAVELENGTH      THROUGHPUT
#       angstroms                

            1860.     4.303069E-8
         1861.655     3.845513E-8
         1863.309     3.383810E-8
         1864.968     2.916636E-8
         1866.627     2.445027E-8
         1868.287     1.969034E-8
         1869.948     1.488323E-8
         1871.612     3.030267E-8
         1873.277     4.652807E-8
         1874.943     6.290165E-8
         1876.611     7.944580E-8
          1878.28     9.614080E-8
         1879.951     1.129640E-7
         1881.624     1.422330E-7
         1883.297     1.721043E-7
         1884.973     2.022461E-7
         1886.648     2.326019E-7
         1888.326     2.632501E-7
         1890.007     2.940777E-7
         1891.687     3.043425E-7
          1893.37     3.147000E-7
         1895.055     3.251379E-7
          1896.74     3.356504E-7
         1898.427     3.462507E-7
         1900.116     3.539832E-7
         1901.806     3.217823E-7
         1903.497     2.892947E-7
         1905.191     2.564982E-7
         1906.885     2.234317E-7
         1908.581     1.900541E-7
          1910.28     1.581993E-7
         1911.978     1.353264E-7
         1913.679     1.122370E-7
         1915.381     8.895843E-8
         1917.085     6.546173E-8
         1918.791     4.176115E-8
         1920.498     2.446432E-8
         1922.205     2.313879E-8
         1923.915     2.179933E-8
         1925.628     2.044683E-8
         1927.339     1.908464E-8
         1929.054     1.770846E-8
         1930.769     2.415486E-8
         1932.487     4.034944E-8
         1934.207     5.668436E-8
         1935.926     7.314837E-8
         1937.649     8.976292E-8
         1939.372     1.065096E-7
         1941.096     1.500656E-7
         1942.824     2.094229E-7
         1944.552     2.692152E-7
         1946.281     3.295152E-7
         1948.013     3.903674E-7
         1949.746     4.517354E-7
          1951.48     4.504609E-7
         1953.216     4.382661E-7
         1954.954     4.259530E-7
         1956.691     4.135375E-7
         1958.432     4.009875E-7
         1960.176     3.891071E-7
         1961.917     3.842739E-7
         1963.663     3.793820E-7
          1965.41     3.744372E-7
         1967.158     3.694430E-7
         1968.907     3.643952E-7
          1970.66     3.580703E-7
         1972.412     3.496635E-7
         1974.167     3.411691E-7
         1975.922     3.326034E-7
          1977.68     3.239440E-7
          1979.44     3.151959E-7
           1981.2     3.132175E-7
         1982.962     3.144187E-7
         1984.726     3.156223E-7
         1986.491     3.168268E-7
         1988.259     3.180338E-7
         1990.028     3.193499E-7
         1991.797     3.274414E-7
         1993.568     3.355927E-7
         1995.342     3.438099E-7
         1997.117     3.520878E-7
         1998.893     3.604206E-7
         2000.672     3.556225E-7
         2002.451     3.289182E-7
         2004.232     3.019206E-7
         2006.016     2.746482E-7
         2007.799     2.471150E-7
         2009.586     2.192837E-7
         2011.373     2.009635E-7
         2013.161     1.854212E-7
         2014.953     1.696997E-7
         2016.745     1.538391E-7
         2018.538     1.378170E-7
         2020.334     1.257958E-7
         2022.132     1.319828E-7
          2023.93     1.382220E-7
         2025.731     1.445216E-7
         2027.532     1.508739E-7
         2029.335     1.572832E-7
         2031.141     1.576661E-7
         2032.949     1.544775E-7
         2034.756     1.512578E-7
         2036.566     1.480023E-7
         2038.378     1.447092E-7
          2040.19     1.397213E-7
         2042.006     1.204372E-7
         2043.821     1.009795E-7
          2045.64     8.132099E-8
          2047.46     6.147386E-8
         2049.279     4.146148E-8
         2051.104     3.110211E-8
         2052.929     2.713183E-8
         2054.753     2.312824E-8
         2056.581     1.908206E-8
         2058.411     1.499737E-8
         2060.241     1.253234E-8
         2062.074     2.099839E-8
         2063.909     2.954202E-8
         2065.744     3.815786E-8
         2067.581     4.685197E-8
         2069.422     5.563520E-8
         2071.262     7.926874E-8
         2073.104     1.099161E-7
         2074.948     1.408540E-7
         2076.793     1.720469E-7
         2078.642     2.035540E-7
         2080.491     2.300187E-7
         2082.341     2.420236E-7
         2084.193     2.541366E-7
         2086.047     2.663420E-7
         2087.902     2.786483E-7
          2089.76     2.910707E-7
         2091.619     2.797896E-7
         2093.479     2.648687E-7
         2095.341     2.498056E-7
         2097.204     2.346157E-7
          2099.07     2.192822E-7
         2100.938     2.049744E-7
         2102.806     1.917040E-7
         2104.677     1.783100E-7
         2106.548     1.648111E-7
         2108.423     1.511875E-7
         2110.299     1.397206E-7
         2112.175     1.402192E-7
         2114.053     1.407190E-7
         2115.934     1.412202E-7
         2117.817     1.417227E-7
           2119.7     1.422259E-7
         2121.586     1.488872E-7
         2123.474     1.567672E-7
         2125.361     1.646949E-7
         2127.252     1.726912E-7
         2129.144     1.807451E-7
         2131.038     1.833625E-7
         2132.934     1.814486E-7
          2134.83     1.795184E-7
          2136.73     1.775699E-7
         2138.631     1.756212E-7
         2140.534     1.743968E-7
         2142.437     1.749825E-7
         2144.342     1.755696E-7
         2146.249     1.761583E-7
          2148.16     1.767493E-7
         2150.071     1.769538E-7
         2151.981     1.670546E-7
         2153.896     1.570684E-7
         2155.813     1.470077E-7
         2157.729     1.368800E-7
         2159.649     1.266693E-7
         2161.571     1.207328E-7
         2163.493     1.157306E-7
         2165.417     1.106928E-7
         2167.344     1.056134E-7
         2169.272     1.005040E-7
         2171.201     9.534510E-8
         2173.133     9.014056E-8
         2175.065     8.490597E-8
            2177.     7.963322E-8
         2178.936     7.432955E-8
         2180.875     6.898093E-8
         2182.815     6.359083E-8
         2184.755     5.817532E-8
           2186.7     5.271720E-8
         2188.645     4.723001E-8
         2190.592     4.427839E-8
         2192.539     4.720277E-8
          2194.49     5.014430E-8
         2196.441     5.309974E-8
         2198.396     5.607247E-8
         2200.352     5.911969E-8
         2202.309     6.247053E-8
         2204.267     6.586660E-8
         2206.229     6.931752E-8
         2208.191     7.281328E-8
         2210.156     7.588671E-8
         2212.121     7.343885E-8
         2214.088     7.094479E-8
         2216.059     6.840145E-8
         2218.029     6.581487E-8
         2220.002     6.317866E-8
         2221.977     5.734627E-8
         2223.953     5.142302E-8
         2225.931     4.540184E-8
         2227.912     3.928590E-8
         2229.894     3.307476E-8
         2231.876     2.986178E-8
         2233.862     2.677133E-8
         2235.849     2.363378E-8
         2237.837     2.045087E-8
         2239.828     1.721805E-8
          2241.82     2.634119E-8
         2243.814     3.677614E-8
         2245.811     4.735541E-8
         2247.809     5.807709E-8
         2249.808     6.893777E-8
         2251.808     7.675063E-8
         2253.812     8.432733E-8
         2255.817     9.199890E-8
         2257.823     9.976287E-8
         2259.831     1.076243E-7
         2261.841     1.022065E-7
         2263.854     9.547328E-8
         2265.865     8.865531E-8
         2267.883     8.173060E-8
         2269.901     7.471620E-8
         2271.918     6.760809E-8
         2273.939     6.039726E-8
         2275.962     5.309316E-8
         2277.988     4.569453E-8
         2280.013     3.823159E-8
         2282.042     3.454400E-8
         2284.071     3.081216E-8
         2286.103     2.703094E-8
         2288.136     2.320469E-8
         2290.172     1.966695E-8
         2292.209     1.977368E-8
         2294.248     1.988055E-8
         2296.288     1.998858E-8
         2298.331     2.010275E-8
         2300.376     2.021698E-8
         2302.421     2.033044E-8
          2304.47     2.044426E-8
         2306.519     2.055829E-8
          2308.57     2.067260E-8
         2310.625     2.078687E-8
         2312.681     2.090030E-8
         2314.736     2.101385E-8
         2316.796     2.112782E-8
         2318.857     2.124206E-8
         2320.919     2.331833E-8
         2322.983     2.787258E-8
         2325.049     3.248037E-8
         2327.118     3.714035E-8
         2329.187     4.184830E-8
          2331.26     4.660961E-8
         2333.334     5.142083E-8
         2335.409     5.628045E-8
         2337.485     6.119215E-8
         2339.565     6.615902E-8
         2341.648     7.117691E-8
         2343.729     7.623706E-8
         2345.814     8.135484E-8
         2347.901     8.652516E-8
         2349.989     9.174518E-8
          2352.08     1.018084E-7
         2354.171     1.119929E-7
         2356.266     1.222887E-7
         2358.361     1.326820E-7
         2360.458     1.410222E-7
          2362.56     1.416895E-7
         2364.661     1.423573E-7
         2366.764     1.430269E-7
         2368.869     1.436975E-7
         2370.977     1.443641E-7
         2373.085     1.450250E-7
         2375.196     1.456876E-7
          2377.31     1.463516E-7
         2379.422     1.470162E-7
         2381.539     1.514625E-7
          2383.66     1.573774E-7
         2385.778     1.633332E-7
         2387.901     1.693494E-7
         2390.024     1.753542E-7
          2392.15     1.761088E-7
         2394.279     1.768649E-7
         2396.409     1.776223E-7
          2398.54     1.783808E-7
         2400.673     1.756930E-7
         2402.809     1.654458E-7
         2404.947     1.550988E-7
         2407.086     1.446529E-7
         2409.225     1.341185E-7
         2411.369     1.270408E-7
         2413.514     1.219255E-7
         2415.662     1.167608E-7
          2417.81     1.115500E-7
         2419.961     1.062864E-7
         2422.113     8.970696E-8
         2424.267     7.277068E-8
         2426.425     5.566511E-8
         2428.584     3.841857E-8
         2430.742     2.505849E-8
         2432.905     1.927816E-8
         2435.069     1.344737E-8
         2437.235     7.570589E-9
         2439.403     1.640341E-9
         2441.572              0.
         2443.745              0.
         2445.917              0.
         2448.094              0.
         2450.272              0.
         2452.451              0.
         2454.631              0.
         2456.815              0.
            2459.              0.
         2461.188     3.385527E-9
         2463.378     9.662037E-9
         2465.569     1.598807E-8
          2467.76     2.235738E-8
         2469.958     2.878866E-8
         2472.154     3.526182E-8
         2474.353     4.178914E-8
         2476.553     4.836355E-8
         2478.756     5.498886E-8
         2480.961     6.449559E-8
         2483.167     7.774461E-8
         2485.378     9.111344E-8
         2487.588     1.045670E-7
         2489.801     1.181308E-7
         2492.015     1.197285E-7
         2494.231     1.201398E-7
         2496.451     1.205523E-7
          2498.67     1.209648E-7
         2500.893     1.213785E-7
         2503.118     1.217929E-7
         2505.345     1.222081E-7
         2507.573     1.226238E-7
         2509.803     1.230401E-7
         2512.036     1.297433E-7
          2514.27     1.371023E-7
         2516.507     1.445201E-7
         2518.746     1.519919E-7
         2520.985     1.595147E-7
         2523.228     1.670968E-7
         2525.472     1.747296E-7
         2527.719     1.824223E-7
         2529.967     1.901653E-7
         2532.218     1.838612E-7
         2534.471     1.772923E-7
         2536.723     1.706773E-7
          2538.98     1.637372E-7
          2541.24     1.567264E-7
           2543.5     1.496961E-7
         2545.762     1.426354E-7
         2548.027     1.355405E-7
         2550.292     1.293670E-7
         2552.562     1.295682E-7
         2554.833     1.297686E-7
         2557.106     1.299683E-7
          2559.38     1.301670E-7
         2561.655     1.249730E-7
         2563.935     1.177258E-7
         2566.216     1.104485E-7
         2568.498     1.031461E-7
         2570.781     9.837724E-8
         2573.069     9.853003E-8
         2575.358     9.868220E-8
         2577.648     9.883367E-8
         2579.942     9.898464E-8
         2582.236     9.913966E-8
         2584.533     9.929429E-8
         2586.833     9.944827E-8
         2589.135     9.960167E-8
         2591.435     9.975724E-8
         2593.741     9.991415E-8
         2596.049     1.000705E-7
         2598.357     1.002260E-7
         2600.669     1.003825E-7
         2602.981     1.005421E-7
         2605.297     1.007011E-7
         2607.614     1.008594E-7
         2609.936     1.010172E-7
         2612.256     9.357004E-8
         2614.579     8.587365E-8
         2616.906     7.813934E-8
         2619.232     7.037773E-8
         2621.564     6.788578E-8
         2623.894     6.799547E-8
         2626.229     6.810484E-8
         2628.565     6.821374E-8
         2630.904     6.832363E-8
         2633.243     6.843526E-8
         2635.585     6.854642E-8
          2637.93     6.865719E-8
         2640.275     6.971460E-8
         2642.625     7.791890E-8
         2644.976     8.615658E-8
         2647.328     9.442147E-8
         2649.683     1.027246E-7
         2652.039     1.039913E-7
         2654.399     1.041613E-7
         2656.759     1.043304E-7
         2659.123     1.044989E-7
         2661.489     9.947504E-8
         2663.854     9.137177E-8
         2666.224     8.322402E-8
         2668.598     7.503604E-8
         2670.971     6.682480E-8
         2673.346     5.857948E-8
         2675.724     5.029388E-8
         2678.104     4.197920E-8
         2680.486     3.534360E-8
          2682.87     3.540102E-8
         2685.258     3.545821E-8
         2687.645     3.551505E-8
         2690.036     3.569937E-8
         2692.429     4.428387E-8
         2694.823     5.289878E-8
         2697.221     6.155274E-8
         2699.619     7.023502E-8
         2702.021     7.906179E-8
         2704.424     8.796170E-8
         2706.829     9.692383E-8
         2709.239     1.059584E-7
         2711.648     1.030672E-7
         2714.059     9.459603E-8
         2716.474     8.605733E-8
         2718.891     7.745601E-8
         2721.308     7.361358E-8
         2723.729     7.384283E-8
         2726.153     7.407232E-8
         2728.577     7.430193E-8
         2731.003     7.453205E-8
         2733.433     7.476294E-8
         2735.865     7.499409E-8
         2738.298     7.522534E-8
         2740.733     7.822140E-8
         2743.171     8.769224E-8
         2745.612     9.722758E-8
         2748.055     1.068286E-7
         2750.499     1.164346E-7
         2752.946     1.258704E-7
         2755.394     1.353238E-7
         2757.845     1.448055E-7
         2760.299     1.531642E-7
         2762.752     1.532765E-7
          2765.21     1.533891E-7
          2767.67     1.535018E-7
         2770.131     1.536146E-7
         2772.596     1.537265E-7
         2775.063     1.538386E-7
         2777.531     1.539508E-7
            2780.     1.540621E-7
         2782.475     1.446328E-7
         2784.949     1.351919E-7
         2787.427     1.257243E-7
         2789.906     1.162403E-7
         2792.386     1.067321E-7
         2794.873     9.718998E-8
         2797.356     8.764395E-8
         2799.845     7.806400E-8
         2802.336     6.846113E-8
          2804.83     5.883767E-8
         2807.324     4.919740E-8
         2809.822     3.952992E-8
          2812.32     3.886214E-8
         2814.821     3.888743E-8
         2817.325     3.891276E-8
         2819.833     3.893814E-8
         2822.339     2.984885E-8
          2824.85     2.007706E-8
         2827.362     1.029009E-8
         2829.878    4.774696E-10
         2832.396     9.357883E-9
         2834.914     1.920726E-8
         2837.437     2.908311E-8
         2839.959     3.897399E-8
         2842.485     5.861490E-8
         2845.015     7.847794E-8
         2847.545     9.835858E-8
         2850.077     1.173720E-7
         2852.613     1.074872E-7
         2855.151     9.758226E-8
          2857.69     8.766297E-8
         2860.233     7.771671E-8
         2862.777     6.775019E-8
         2865.323     5.776860E-8
         2867.871     4.776711E-8
         2870.423     4.106934E-8
         2872.976     5.115956E-8
         2875.531     6.126449E-8
         2878.088     7.138901E-8
         2880.649     8.410132E-8
         2883.212     1.043989E-7
         2885.775     1.247240E-7
         2888.343     1.451016E-7
         2890.913     1.619047E-7
         2893.483     1.721652E-7
         2896.058     1.824518E-7
         2898.633     1.927518E-7
          2901.21     1.933075E-7
         2903.792     1.828426E-7
         2906.375     1.723959E-7
         2908.961     1.619657E-7
         2911.546     1.576589E-7
         2914.137     1.574492E-7
          2916.73     1.572390E-7
         2919.323     1.570285E-7
         2921.922     1.643525E-7
         2924.519     1.742955E-7
         2927.121     1.842310E-7
         2929.725     1.941468E-7
         2932.332     1.949479E-7
         2934.941     1.946757E-7
         2937.549     1.944032E-7
         2940.163     1.941300E-7
         2942.779     1.938563E-7
         2945.397     1.935821E-7
         2948.016     1.933074E-7
         2950.637     1.881092E-7
         2953.263     1.675934E-7
         2955.889     1.471323E-7
         2958.519     1.266998E-7
         2961.153     1.151437E-7
         2963.784     1.149747E-7
         2966.421     1.148050E-7
         2969.061     1.146351E-7
         2971.701     1.209529E-7
         2974.343     1.308378E-7
          2976.99     1.407077E-7
         2979.638     1.505551E-7
         2982.286     1.343575E-7
         2984.939     1.140571E-7
         2987.597     9.378666E-8
         2990.253     7.454220E-8
         2992.914     6.439831E-8
         2995.575     5.428273E-8
         2998.239     4.418999E-8
         3000.907     3.751432E-8
         3003.575     3.745497E-8
         3006.249     3.739544E-8
         3008.921     3.733590E-8
         3011.598     4.323164E-8
         3014.277     5.313509E-8
         3016.958     6.300814E-8
         3019.642     7.286419E-8
         3022.327     6.545408E-8
         3025.016     5.540443E-8
         3027.706     4.538367E-8
         3030.398     3.685390E-8
         3033.096     3.679261E-8
         3035.793     3.673129E-8
         3038.494     3.666980E-8
         3041.198     3.660821E-8
           3043.9     3.654657E-8
         3046.608     3.648474E-8
         3049.319     3.642279E-8
         3052.032     4.374979E-8
         3054.748     5.353078E-8
         3057.462     6.327511E-8
         3060.183     7.300632E-8
         3062.905     8.271108E-8
         3065.629     9.238495E-8
         3068.356     1.020382E-7
         3071.085     1.038666E-7
         3073.817     9.388501E-8
         3076.551     8.393606E-8
         3079.288     7.400653E-8
         3082.028     7.133426E-8
         3084.768     7.120629E-8
         3087.513     7.107800E-8
         3090.258     7.003411E-8
         3093.006     6.017616E-8
         3095.758     5.033953E-8
         3098.512     4.052964E-8
         3101.269     3.527066E-8
         3104.025     3.532326E-8
         3106.787     3.537602E-8
         3109.551     3.542884E-8
         3112.316     3.548173E-8
         3115.087     3.553477E-8
         3117.855     3.558779E-8
         3120.631     3.564100E-8
         3123.406     3.569424E-8
         3126.185     3.574759E-8
         3128.967     3.580103E-8
         3131.749     3.585434E-8
         3134.533     3.590763E-8
         3137.322     3.596104E-8
         3140.114     3.642428E-8
         3142.906     4.654995E-8
         3145.701     5.671467E-8
           3148.5     6.692477E-8
         3151.301     7.246109E-8
         3154.103     7.256894E-8
         3156.911     7.267710E-8
         3159.716     7.278524E-8
         3162.528     7.289376E-8
         3165.342     7.300245E-8
         3168.158     7.311133E-8
         3170.975     7.678901E-8
         3173.794     8.724063E-8
         3176.618     9.773925E-8
         3179.443     1.082715E-7
          3182.27     1.104838E-7
         3185.103     1.106489E-7
         3187.936     1.108141E-7
         3190.772     1.109794E-7
         3193.609     1.111443E-7
         3196.451     1.113096E-7
         3199.293     1.114750E-7
         3202.138     9.573043E-8
         3204.989     7.462343E-8
          3207.84     5.344789E-8
         3210.691     3.479822E-8
         3213.547     2.415608E-8
         3216.407     1.347189E-8
         3219.267     2.753784E-9
         3222.129     8.006519E-9
         3224.996     1.881547E-8
         3227.865     2.966585E-8
         3230.734     3.777272E-8
         3233.612     3.782919E-8
         3236.487     3.788563E-8
         3239.365     3.794216E-8
         3242.247     4.653877E-8
          3245.13     5.758058E-8
         3248.016     6.866480E-8
         3250.906     7.288418E-8
         3253.798     6.193647E-8
         3256.693     5.094557E-8
         3259.587     3.992528E-8
         3262.489     3.839985E-8
          3265.39     3.845738E-8
         3268.294     3.851500E-8
         3271.202     4.320808E-8
          3274.11     5.450994E-8
         3277.024     6.586382E-8
         3279.939     7.726043E-8
         3282.858     7.761254E-8
         3285.779     7.772925E-8
         3288.698     7.784602E-8
         3291.625     7.796356E-8
         3294.553     7.808168E-8
         3297.481     7.819982E-8
         3300.415     7.831834E-8
         3303.351     7.843717E-8
          3306.29     7.855619E-8
         3309.229     7.867525E-8
         3312.175     7.022766E-8
         3315.122     5.870627E-8
         3318.069     4.714676E-8
         3321.022     3.553368E-8
         3323.975     2.388323E-8
         3326.932     1.217884E-8
          3329.89    4.358286E-10
         3332.853     1.136157E-8
         3335.819     2.320493E-8
         3338.785     3.508751E-8
         3341.754     4.000312E-8
         3344.727     4.006464E-8
         3347.703     4.012628E-8
         3350.681     4.018802E-8
         3353.659     4.024988E-8
         3356.643     4.031191E-8
         3359.629     4.037404E-8
         3362.617     4.043633E-8
          3365.61     4.049881E-8
         3368.601     4.056128E-8
         3371.598     4.711750E-8
         3374.598     5.939708E-8
         3377.601     7.172471E-8
         3380.604     8.162837E-8
          3383.61     8.175569E-8
         3386.621     8.188330E-8
         3389.632     8.201105E-8
         3392.648     1.038902E-7
         3395.667     1.288870E-7
         3398.686     1.539702E-7
          3401.71     1.721127E-7
         3404.737     1.848929E-7
         3407.764     1.977157E-7
         3410.794     2.040056E-7
         3413.829     1.917266E-7
         3416.866     1.793971E-7
         3419.906     1.670160E-7
         3422.946     1.791815E-7
         3425.991     1.921939E-7
         3429.039     2.052596E-7
         3432.088     2.183713E-7
         3435.142     2.315452E-7
         3438.197     2.447638E-7
         3441.256     2.580445E-7
         3444.316     2.713720E-7
         3447.382     2.847691E-7
         3450.448     2.982047E-7
         3453.516     3.116980E-7
         3456.588     3.252545E-7
         3459.662     3.388570E-7
          3462.74     3.291759E-7
         3465.819     3.165722E-7
         3468.903     3.039069E-7
         3471.989     3.167422E-7
         3475.074     3.437252E-7
         3478.168     3.708728E-7
         3481.261     4.577940E-7
         3484.359     6.320975E-7
         3487.459     8.071295E-7
         3490.558     1.028519E-6
         3493.667     1.461244E-6
         3496.772     1.894691E-6
         3499.883     2.330532E-6
         3502.997     3.237953E-6
          3506.11     4.166368E-6
          3509.23     5.099934E-6
         3512.352     6.953361E-6
         3515.477     9.115372E-6
         3518.603     1.128536E-5
         3521.732     1.470582E-5
         3524.867     1.915062E-5
         3528.001     2.360874E-5
         3531.138     2.951505E-5
          3534.28     3.796818E-5
         3537.423     4.645231E-5
          3540.57     5.615949E-5
          3543.72     7.125738E-5
         3546.874     8.642107E-5
         3550.025     1.017092E-4
         3553.184     1.267840E-4
         3556.345     1.519668E-4
         3559.508     1.772422E-4
         3562.673     2.137988E-4
         3565.843     2.525974E-4
         3569.015     2.915697E-4
         3572.191     3.419878E-4
         3575.367     3.976815E-4
         3578.548     4.536504E-4
          3581.73     5.185271E-4
         3584.915     5.910150E-4
         3588.107     6.639019E-4
         3591.297     7.357177E-4
         3594.491     8.059301E-4
         3597.689     8.764903E-4
          3600.89     9.379078E-4
         3604.092     9.749382E-4
         3607.296     0.001012127
         3610.506     0.001049503
         3613.719     0.001087033
          3616.93     0.001124677
         3620.152     0.001162581
         3623.369      0.00120058
         3626.593     0.001238791
          3629.82     0.001277169
         3633.047     0.001315679
         3636.278     0.001354356
         3639.513     0.001393224
         3642.751       0.0015241
         3645.992     0.001681413
         3649.232     0.001839397
         3652.481     0.002005341
         3655.729     0.002177528
         3658.979     0.002380569
         3662.235      0.00259306
         3665.493      0.00281912
         3668.753     0.003062253
         3672.015     0.003309036
         3675.284     0.003576799
         3678.554     0.003849241
         3681.823     0.004142903
         3685.099     0.004449992
         3688.378     0.004761494
         3691.656     0.005098378
          3694.94     0.005448376
         3698.228     0.005808174
         3701.518     0.006169367
         3704.807     0.006543674
         3708.106     0.006925731
         3711.405     0.007316323
         3714.705     0.007698559
          3718.01     0.008089283
         3721.316     0.008492252
         3724.625     0.008885195
         3727.939     0.009277252
         3731.256      0.00967164
         3734.576      0.01007235
         3737.895      0.01047475
         3741.223      0.01086098
         3744.549      0.01124063
         3747.881       0.0116179
         3751.216      0.01198496
         3754.549       0.0123503
          3757.89       0.0127229
         3761.233      0.01308163
          3764.58      0.01343871
         3767.927      0.01378133
         3771.278      0.01412931
         3774.633       0.0144967
         3777.991      0.01484823
         3781.351       0.0152101
         3784.715      0.01555365
         3788.081      0.01592033
         3791.451      0.01628534
         3794.824      0.01665181
         3798.199      0.01702206
         3801.578      0.01741066
         3804.958      0.01780817
         3808.344      0.01817879
         3811.732      0.01858019
         3815.122      0.01898023
         3818.514      0.01938913
         3821.912      0.01983097
         3825.312      0.02028525
         3828.714      0.02071913
          3832.12      0.02117427
         3835.528      0.02163724
          3838.94      0.02209353
         3842.356      0.02255849
         3845.772      0.02304617
         3849.192      0.02352674
         3852.617      0.02402341
         3856.045       0.0245249
         3859.476      0.02504358
         3862.905      0.02555053
         3866.342      0.02605147
         3869.782      0.02653019
         3873.223      0.02702986
         3876.672      0.02753656
         3880.117      0.02801215
         3883.569      0.02850087
         3887.024      0.02896824
          3890.48      0.02944574
         3893.942      0.02990456
         3897.405       0.0303573
         3900.872       0.0307874
         3904.343       0.0312398
         3907.813      0.03164987
         3911.292      0.03203387
          3914.77       0.0324083
         3918.253        0.032768
         3921.737      0.03317015
         3925.224      0.03352007
         3928.716      0.03383153
         3932.212      0.03417868
         3935.711      0.03447566
         3939.212      0.03478063
         3942.713      0.03509496
         3946.221      0.03536287
         3949.732      0.03562181
         3953.244      0.03592114
         3956.761       0.0361554
          3960.28      0.03638912
         3963.803      0.03665855
         3967.328      0.03688881
         3970.858       0.0371496
         3974.391      0.03734609
         3977.925       0.0375927
         3981.464      0.03785133
         3985.005       0.0380931
         3988.548      0.03831141
         3992.097      0.03854592
         3995.649       0.0388099
         3999.204      0.03908461
         4002.758      0.03930103
         4006.319      0.03947001
         4009.884       0.0396599
         4013.451      0.03983965
         4017.022      0.04001231
         4020.592      0.04023626
         4024.169      0.04041122
          4027.75      0.04061171
         4031.333      0.04079384
          4034.92      0.04102531
         4038.506      0.04122385
         4042.099      0.04146033
         4045.696      0.04168821
         4049.295      0.04184528
         4052.898      0.04205173
           4056.5      0.04231109
         4060.109      0.04249489
         4063.721      0.04268533
         4067.337      0.04290124
         4070.954      0.04310224
         4074.573      0.04331647
         4078.199      0.04348753
         4081.827      0.04362681
         4085.457      0.04383263
         4089.092      0.04404487
         4092.728      0.04418276
         4096.369      0.04434829
         4100.012      0.04447436
          4103.66      0.04459905
         4107.309      0.04473742
         4110.963      0.04485814
         4114.621      0.04501518
         4118.279      0.04510298
         4121.941      0.04515931
         4125.609      0.04523416
          4129.28        0.045308
         4132.954      0.04540152
         4136.626      0.04542981
         4140.307      0.04546965
         4143.991      0.04550328
         4147.675      0.04554633
         4151.368      0.04558925
          4155.06      0.04555922
         4158.754      0.04553565
         4162.454      0.04554912
         4166.156      0.04554812
         4169.862      0.04554479
          4173.57      0.04552958
         4177.284      0.04548278
            4181.      0.04547678
         4184.716      0.04543301
         4188.441      0.04542466
         4192.166      0.04541694
         4195.896      0.04540813
         4199.629      0.04533789
         4203.361      0.04534465
         4207.101      0.04542834
         4210.844      0.04547099
          4214.59       0.0455217
         4218.338      0.04556409
         4222.089       0.0456103
         4225.846      0.04568695
         4229.605      0.04578248
         4233.366      0.04581181
         4237.133      0.04590709
           4240.9      0.04599532
         4244.674      0.04607522
         4248.448      0.04617412
         4252.229      0.04629575
         4256.009      0.04641841
         4259.796      0.04653053
         4263.586      0.04670413
         4267.377      0.04686792
         4271.174      0.04698071
         4274.972      0.04716556
         4278.776      0.04732789
         4282.583      0.04748514
         4286.388      0.04765635
         4290.205      0.04785311
          4294.02      0.04809611
          4297.84       0.0482639
         4301.664      0.04848523
         4305.489      0.04866944
         4309.317      0.04886261
         4313.151      0.04905962
         4316.989      0.04927105
          4320.83      0.04945904
          4324.67      0.04966474
         4328.518      0.04983115
         4332.369      0.05004303
         4336.224      0.05023046
         4340.082       0.0503912
         4343.938      0.05060137
         4347.803      0.05081175
         4351.672      0.05097071
         4355.544      0.05114516
         4359.417      0.05126313
         4363.293      0.05141898
         4367.175      0.05151251
         4371.061      0.05162787
         4374.948      0.05171612
          4378.84      0.05175202
         4382.734      0.05179615
         4386.633      0.05184967
         4390.534      0.05189454
          4394.44      0.05187122
         4398.348      0.05186087
         4402.261      0.05185942
         4406.178      0.05180265
         4410.099      0.05179127
         4414.018      0.05172895
         4417.945      0.05169259
         4421.875       0.0516233
          4425.81      0.05151279
         4429.745      0.05139862
         4433.684      0.05130225
         4437.629      0.05115518
         4441.575       0.0510557
         4445.529      0.05095788
         4449.482      0.05085487
         4453.438      0.05069803
         4457.401      0.05055941
         4461.364      0.05046864
         4465.334      0.05030639
         4469.305      0.05017186
         4473.281      0.05009582
         4477.261      0.05000025
          4481.24      0.04990955
         4485.227      0.04983008
         4489.218       0.0497411
         4493.212      0.04968059
         4497.207       0.0496082
         4501.206      0.04957017
         4505.213      0.04969091
         4509.219      0.04985115
         4513.231      0.05003877
         4517.247      0.05027037
         4521.261      0.05047109
         4525.284       0.0506435
         4529.311      0.05091048
          4533.34      0.05111904
         4537.371      0.05132046
         4541.408      0.05156833
         4545.447      0.05193397
         4549.491      0.05219873
         4553.536      0.05255558
         4557.585      0.05290613
          4561.64      0.05318857
         4565.699      0.05358646
         4569.761      0.05393559
         4573.827      0.05431529
         4577.892      0.05468473
         4581.965      0.05517102
         4586.042      0.05553024
          4590.12      0.05592183
         4594.204      0.05637173
         4598.289      0.05679631
          4602.38      0.05724088
         4606.472      0.05765268
         4610.568      0.05813034
          4614.67      0.05851648
         4618.776      0.05889463
         4622.886      0.05934668
         4626.999      0.05977194
         4631.113       0.0601196
         4635.231       0.0605511
         4639.355      0.06084841
         4643.483       0.0612033
         4647.612      0.06147212
         4651.748      0.06179735
         4655.884      0.06214214
         4660.026      0.06241029
          4664.17      0.06269164
         4668.317      0.06287563
         4672.471      0.06304251
         4676.628      0.06319375
         4680.789      0.06332356
         4684.954      0.06341047
         4689.117      0.06355778
         4693.289      0.06360488
         4697.465      0.06361245
         4701.645      0.06367739
         4705.825      0.06366462
         4710.012      0.06365678
           4714.2      0.06357177
         4718.392      0.06350091
          4722.59      0.06337621
          4726.79      0.06330704
         4730.995      0.06322619
         4735.205      0.06314808
         4739.417      0.06304182
         4743.629      0.06294826
          4747.85      0.06284615
         4752.074      0.06276947
         4756.302      0.06261322
         4760.532      0.06249899
         4764.767      0.06237355
         4769.004       0.0622841
         4773.247      0.06223078
         4777.492      0.06219307
         4781.742      0.06215059
         4785.994      0.06209727
         4790.252      0.06214188
         4794.515      0.06213164
          4798.78      0.06217381
         4803.045      0.06218665
         4807.318      0.06222552
         4811.596      0.06227292
         4815.877      0.06244626
         4820.162      0.06250216
         4824.448      0.06263928
         4828.737      0.06279489
         4833.034      0.06295785
         4837.332      0.06317445
         4841.635      0.06336936
          4845.94      0.06359182
         4850.252      0.06380741
         4854.567      0.06403594
         4858.881      0.06430151
         4863.205      0.06453437
         4867.532      0.06484129
         4871.862      0.06516035
         4876.197      0.06546424
         4880.533      0.06576482
         4884.875      0.06608268
         4889.219      0.06638358
         4893.566      0.06674484
          4897.92      0.06704463
         4902.276      0.06741808
         4906.638      0.06775419
         4911.003      0.06806534
         4915.373      0.06842996
         4919.741      0.06876422
         4924.118      0.06912798
         4928.499      0.06945553
         4932.884      0.06978495
         4937.273      0.07010604
         4941.664      0.07039589
         4946.058      0.07076178
         4950.458      0.07111141
          4954.86       0.0715118
         4959.269       0.0718156
         4963.679      0.07223219
         4968.095      0.07258445
         4972.515      0.07303932
         4976.934      0.07344078
         4981.362      0.07385977
         4985.794      0.07435682
          4990.23      0.07484616
          4994.67      0.07540089
         4999.112      0.07599785
          5003.56      0.07658667
         5008.009      0.07726788
         5012.464      0.07798467
         5016.921      0.07871284
         5021.385      0.07949303
          5025.85      0.08023781
         5030.322       0.0810665
         5034.795      0.08192444
         5039.272      0.08265111
         5043.755      0.08348246
         5048.243      0.08419494
         5052.735      0.08485769
          5057.23      0.08532584
         5061.727      0.08573604
         5066.228      0.08585434
         5070.736      0.08581882
         5075.248        0.085444
          5079.76      0.08478991
          5084.28      0.08377197
         5088.801       0.0823031
         5093.329      0.08046135
         5097.857      0.07814975
         5102.391      0.07543752
          5106.93      0.07238896
         5111.474      0.06903589
         5116.022      0.06535079
         5120.574      0.06145356
         5125.124      0.05747131
         5129.684      0.05338645
         5134.249      0.04931608
         5138.813      0.04540402
         5143.386      0.04162739
         5147.959      0.03800897
          5152.54      0.03462886
         5157.122      0.03145126
         5161.707      0.02851391
           5166.3      0.02587875
         5170.896      0.02344287
         5175.497      0.02120115
         5180.102      0.01915555
         5184.708       0.0173174
         5189.318      0.01566207
         5193.936      0.01416238
         5198.557      0.01282367
         5203.179      0.01161962
         5207.809      0.01053313
         5212.439     0.009570915
         5217.077     0.008700249
         5221.716     0.007917159
         5226.359     0.007217906
         5231.009     0.006592236
         5235.664     0.006013237
         5240.322     0.005502448
         5244.984     0.005030254
         5249.646      0.00462034
         5254.316       0.0042454
         5258.991     0.003901808
          5263.67      0.00359164
         5268.351     0.003213762
         5273.038     0.002500423
         5277.727     0.002320203
          5282.42     0.002156048
          5287.12     0.002006996
         5291.821      0.00186742
         5296.529     0.001743453
         5301.242     0.001624411
         5305.959     0.001520947
         5310.674     0.001419411
         5315.399     0.001332423
         5320.128     0.001245185
         5324.862     0.001171665
         5329.597     0.001097647
         5334.339     0.001034066
         5339.082     9.710895E-4
         5343.833     9.159870E-4
         5348.584     8.625310E-4
          5353.34     8.147047E-4
         5358.103     7.690634E-4
          5362.87     7.272046E-4
         5367.642     6.877636E-4
         5372.417     6.508711E-4
         5377.192     6.165185E-4
         5381.976     5.839778E-4
         5386.765     5.541967E-4
         5391.558     5.256190E-4
         5396.354     4.997978E-4
         5401.153     4.746979E-4
         5405.956     4.522598E-4
         5410.766     4.301312E-4
         5415.577     4.104400E-4
         5420.396     3.908124E-4
         5425.215     3.735171E-4
         5430.042     3.561084E-4
         5434.874     3.407322E-4
         5439.703     3.252668E-4
         5444.543     3.115089E-4
         5449.387     2.977739E-4
         5454.236     2.854512E-4
         5459.089     2.732608E-4
         5463.943     2.621659E-4
         5468.804     2.512585E-4
         5473.667     2.412836E-4
         5478.534     2.315671E-4
         5483.409     2.225460E-4
         5488.285     2.137992E-4
         5493.168     2.056651E-4
         5498.055     1.978441E-4
         5502.947     1.904681E-4
         5507.837     1.833837E-4
         5512.738     1.767329E-4
         5517.643     1.704260E-4
         5522.552     1.644044E-4
         5527.466     1.586474E-4
         5532.381     1.531313E-4
           5537.3     1.478737E-4
         5542.227     1.428369E-4
         5547.158     1.380823E-4
          5552.09     1.335186E-4
         5557.027     1.292234E-4
         5561.972     1.250522E-4
          5566.92     1.210872E-4
         5571.871     1.172469E-4
         5576.825     1.136261E-4
         5581.787     1.101209E-4
         5586.753     1.068448E-4
         5591.724     1.036394E-4
         5596.699     1.005870E-4
         5601.676     9.757255E-5
         5606.657     9.465295E-5
         5611.645     9.183025E-5
         5616.635     8.922214E-5
         5621.632     8.666734E-5
         5626.631     8.423909E-5
         5631.637     8.186583E-5
         5636.645     7.962088E-5
         5641.657     7.743455E-5
         5646.676     7.537442E-5
         5651.701     7.337514E-5
         5656.729     7.150343E-5
         5661.762     6.969602E-5
         5666.796     6.801608E-5
         5671.835     6.650374E-5
         5676.882     6.528961E-5
         5681.933     6.425512E-5
         5686.985     6.351500E-5
         5692.045     6.184977E-5
         5697.106     5.881783E-5
         5702.175     5.651787E-5
         5707.246     5.520320E-5
         5712.321     5.394719E-5
         5717.403     5.276171E-5
          5722.49     5.157151E-5
         5727.582     5.037694E-5
         5732.678     4.925175E-5
         5737.772     4.819059E-5
         5742.877     4.716356E-5
         5747.987     4.616319E-5
         5753.101     4.520255E-5
         5758.217     4.426714E-5
         5763.337     4.337467E-5
         5768.465     4.250318E-5
         5773.594     4.167867E-5
         5778.731     4.087176E-5
         5783.869     4.006286E-5
         5789.016     3.925048E-5
         5794.166     3.849312E-5
         5799.322     3.774654E-5
         5804.481     3.706080E-5
          5809.64     3.638292E-5
         5814.809     3.576893E-5
         5819.982     3.515767E-5
         5825.157     3.447217E-5
          5830.34     3.379300E-5
         5835.524     3.324856E-5
         5840.713     3.270214E-5
          5845.91     3.215378E-5
         5851.108     3.160359E-5
         5856.314     3.105056E-5
         5861.525     3.051742E-5
          5866.74     3.003531E-5
          5871.96     2.957943E-5
         5877.178     2.916902E-5
         5882.407     2.872206E-5
         5887.641     2.823285E-5
         5892.879     2.778323E-5
          5898.12     2.736614E-5
         5903.367     2.694725E-5
         5908.617     2.652702E-5
         5913.874     2.616127E-5
         5919.132     2.581445E-5
         5924.396     2.540231E-5
         5929.667     2.497572E-5
         5934.942     2.469142E-5
         5940.223     2.441253E-5
         5945.508     2.405886E-5
         5950.792     2.370430E-5
         5956.086     2.334797E-5
         5961.386     2.301065E-5
          5966.69     2.272964E-5
         5971.996     2.244758E-5
         5977.306     2.216424E-5
         5982.624     2.187981E-5
         5987.944     2.159465E-5
         5993.271     2.130822E-5
         5998.601     2.102089E-5
         6003.938     2.077375E-5
          6009.28     2.054097E-5
         6014.626     2.023987E-5
         6019.971     1.992816E-5
         6025.328     1.969428E-5
         6030.688     1.946054E-5
         6036.054     1.922645E-5
         6041.425     1.899205E-5
         6046.797     1.875746E-5
         6052.173     1.852269E-5
         6057.559     1.828762E-5
         6062.945     1.805222E-5
         6068.339     1.781621E-5
         6073.735     1.763548E-5
         6079.139     1.747910E-5
         6084.548     1.725519E-5
         6089.955     1.701852E-5
         6095.374     1.678123E-5
         6100.797     1.655543E-5
         6106.225     1.639787E-5
         6111.658     1.624010E-5
         6117.092     1.608220E-5
         6122.535     1.588643E-5
         6127.979     1.564745E-5
         6133.432     1.545882E-5
         6138.885     1.530004E-5
         6144.344     1.514124E-5
         6149.811     1.498219E-5
         6155.283     1.482264E-5
         6160.759     1.466289E-5
         6166.234     1.450313E-5
          6171.72     1.434295E-5
         6177.211     1.418257E-5
         6182.708     1.402196E-5
         6188.208     1.386114E-5
         6193.711     1.375531E-5
         6199.218     1.367598E-5
         6204.734     1.352615E-5
         6210.251     1.336460E-5
         6215.777     1.320253E-5
         6221.304     1.304040E-5
         6226.839     1.287812E-5
         6232.379     1.275093E-5
         6237.921     1.267053E-5
         6243.468     1.253857E-5
         6249.023     1.237550E-5
         6254.583     1.228021E-5
         6260.148     1.219712E-5
         6265.718     1.203302E-5
          6271.29     1.188805E-5
         6276.866     1.180686E-5
         6282.451     1.172543E-5
         6288.037     1.164385E-5
         6293.632     1.150802E-5
         6299.228     1.134286E-5
         6304.833     1.124939E-5
         6310.439     1.116735E-5
          6316.05     1.108504E-5
         6321.669     1.097771E-5
         6327.294     1.081130E-5
         6332.924     1.068830E-5
         6338.559     1.060552E-5
         6344.195     1.052255E-5
         6349.836     1.043945E-5
         6355.486     1.035619E-5
         6361.141     1.027281E-5
         6366.797     1.018924E-5
         6372.458     1.006892E-5
         6378.128     9.900535E-6
         6383.803     9.788706E-6
         6389.479     9.704757E-6
         6395.161     9.620554E-6
         6400.851     9.536177E-6
         6406.546     9.451564E-6
         6412.246     9.366870E-6
         6417.951     9.282095E-6
         6423.654     9.197235E-6
          6429.37     9.112116E-6
          6435.09     9.026920E-6
         6440.813     8.941665E-6
         6446.543     8.856150E-6
         6452.275     8.770602E-6
         6458.016     8.684926E-6
         6463.758     8.599030E-6
          6469.51     8.512892E-6
         6475.262     8.426735E-6
         6481.023     8.340452E-6
          6486.79     8.254085E-6
         6492.562     8.167523E-6
         6498.338     8.080734E-6
         6504.113     7.985788E-6
           6509.9     7.887540E-6
         6515.692     7.789347E-6
         6521.486     7.691353E-6
         6527.288     7.593391E-6
         6533.096     7.495545E-6
         6538.901     7.397948E-6
         6544.719     7.369994E-6
         6550.542     7.350257E-6
         6556.367     7.252827E-6
         6562.201     7.155534E-6
         6568.039     7.058446E-6
         6573.883     6.961386E-6
         6579.725     6.864567E-6
         6585.579     6.849259E-6
         6591.438     6.817009E-6
           6597.3     6.720509E-6
         6603.169     6.624097E-6
         6609.045     6.527828E-6
         6614.921     6.502865E-6
         6620.803     6.480132E-6
         6626.694     6.384264E-6
         6632.586     6.288577E-6
         6638.488     6.192916E-6
         6644.395     6.160516E-6
         6650.306     6.145456E-6
         6656.223     6.050099E-6
         6662.138     5.985592E-6
         6668.066     5.975065E-6
         6673.999     5.907683E-6
         6679.937     5.812962E-6
         6685.876     5.718543E-6
         6691.825     5.650033E-6
         6697.776     5.639808E-6
         6703.731     5.629588E-6
         6709.696     5.619357E-6
         6715.666     5.529687E-6
         6721.637     5.458941E-6
         6727.618     5.448978E-6
         6733.604     5.388699E-6
         6739.587     5.295440E-6
         6745.584     5.279895E-6
         6751.586     5.248098E-6
         6757.593     5.155189E-6
         6763.602     5.112275E-6
          6769.62     5.102640E-6
         6775.643     5.093098E-6
         6781.664     5.060684E-6
         6787.698     4.968357E-6
         6793.737     4.927422E-6
         6799.778     4.918066E-6
         6805.828     4.908709E-6
         6811.883     4.899352E-6
         6817.937     4.890005E-6
         6824.003     4.826387E-6
         6830.075     4.735994E-6
         6836.152     4.726909E-6
         6842.234     4.717824E-6
         6848.318     4.708745E-6
         6854.411     4.699665E-6
         6860.506     4.690582E-6
         6866.606     4.681427E-6
         6872.716     4.672309E-6
         6878.831     4.663242E-6
         6884.948     4.654186E-6
         6891.073     4.645123E-6
         6897.205     4.636064E-6
         6903.334     4.626972E-6
         6909.476     4.617830E-6
         6915.624     4.608775E-6
         6921.777     4.599727E-6
         6927.936     4.590684E-6
         6934.096     4.581710E-6
         6940.261     4.576174E-6
         6946.437     4.647658E-6
         6952.613     4.684840E-6
         6958.799     4.675554E-6
         6964.991     4.666346E-6
         6971.184     4.672480E-6
         6977.387     4.743354E-6
         6983.591     4.813938E-6
           6989.8     4.884277E-6
          6996.02     4.877166E-6
         7002.244     4.894465E-6
         7008.475     4.959379E-6
         7014.707     5.023795E-6
         7020.948     5.087849E-6
          7027.19     5.151559E-6
         7033.443     5.214984E-6
         7039.697     5.278035E-6
          7045.96     5.340642E-6
         7052.226     5.430684E-6
           7058.5     5.570751E-6
         7064.777     5.709944E-6
         7071.063     5.848435E-6
          7077.35     5.986069E-6
         7083.647     6.123004E-6
          7089.95     6.259165E-6
         7096.258     6.471257E-6
         7102.568     6.682670E-6
         7108.883     6.892908E-6
         7115.208     7.102114E-6
         7121.539     7.328752E-6
         7127.872     7.611783E-6
         7134.213     7.893508E-6
         7140.557     8.180226E-6
         7146.911     8.534629E-6
         7153.266     8.886932E-6
         7159.626     9.237356E-6
         7165.997     9.657078E-6
         7172.372     1.005094E-5
         7178.754     1.039565E-5
         7185.141     1.079856E-5
         7191.526     1.119544E-5
         7197.925     1.153405E-5
         7204.329     1.182043E-5
         7210.735     1.206389E-5
         7217.151     1.217494E-5
         7223.572     1.220313E-5
         7229.995     1.216570E-5
         7236.424     1.190756E-5
         7242.863     1.155248E-5
         7249.303     1.107748E-5
         7255.753     1.053931E-5
         7262.208     9.946088E-6
          7268.67     9.260047E-6
         7275.137     8.577777E-6
         7281.603     7.881818E-6
         7288.081     7.134160E-6
         7294.566     6.492042E-6
         7301.052     5.896344E-6
         7307.548     5.303340E-6
          7314.05     4.758132E-6
         7320.553     4.249184E-6
         7327.063     3.808020E-6
         7333.582     3.408099E-6
         7340.103     3.043643E-6
         7346.634     2.750636E-6
          7353.17     2.493461E-6
         7359.713     2.273967E-6
         7366.253     2.055946E-6
         7372.807     1.838774E-6
         7379.367     1.622745E-6
         7385.933     1.471056E-6
           7392.5     1.353534E-6
         7399.078     1.279661E-6
         7405.657     1.146567E-6
         7412.242     1.028036E-6
         7418.837     9.556434E-7
         7425.434     8.836956E-7
         7432.041     8.120866E-7
         7438.653     7.408713E-7
         7445.271     7.245815E-7
         7451.896     7.027263E-7
         7458.518     6.323951E-7
         7465.154     5.623500E-7
         7471.796     5.110346E-7
         7478.444     5.094109E-7
         7485.094     5.077905E-7
         7491.753     4.884235E-7
         7498.415     4.196496E-7
         7505.083     4.023737E-7
          7511.76     4.010929E-7
         7518.444     3.998138E-7
         7525.129     3.985363E-7
         7531.825     3.791374E-7
         7538.526     3.115811E-7
         7545.225     2.960330E-7
         7551.938     2.950777E-7
         7558.658     2.941235E-7
         7565.383     2.931699E-7
          7572.11     2.922177E-7
         7578.847     2.912660E-7
          7585.59     2.903154E-7
         7592.335     2.893661E-7
         7599.086     2.884179E-7
         7605.848     2.874698E-7
         7612.611     2.615875E-7
         7619.384     1.962503E-7
         7626.163     1.897542E-7
          7632.94     1.891254E-7
         7639.731     1.884965E-7
         7646.529     1.878682E-7
         7653.333     1.872406E-7
         7660.142     1.866135E-7
         7666.953     1.859877E-7
         7673.775     1.853619E-7
         7680.598     1.847372E-7
         7687.428     1.841132E-7
         7694.268     1.834895E-7
         7701.114     1.828665E-7
         7707.961     1.822445E-7
         7714.819     1.816230E-7
         7721.684     1.810020E-7
          7728.55     1.803821E-7
         7735.422     1.797629E-7
         7742.304     1.791440E-7
         7749.193     1.785260E-7
         7756.088     1.779086E-7
         7762.984     1.772923E-7
         7769.887     1.766768E-7
           7776.8     1.760617E-7
         7783.715     1.754477E-7
         7790.641     1.748340E-7
         7797.573     1.742212E-7
         7804.506     1.736095E-7
          7811.45     1.729982E-7
         7818.396     1.723879E-7
         7825.348     1.717786E-7
         7832.311     1.711698E-7
         7839.279     1.705616E-7
         7846.254     1.699545E-7
         7853.231     1.693485E-7
         7860.218     1.687427E-7
         7867.208     1.681384E-7
         7874.208     1.675346E-7
         7881.209     1.669319E-7
         7888.222     1.663298E-7
         7895.235     1.657290E-7
          7902.26     1.651286E-7
         7909.287     1.645294E-7
         7916.324     1.639310E-7
         7923.363     1.633337E-7
         7930.413     1.627369E-7
         7937.469     1.621412E-7
         7944.531     1.615465E-7
         7951.596     1.609530E-7
         7958.666     1.603606E-7
         7965.747     1.597689E-7
         7972.834     1.591780E-7
         7979.924     1.585883E-7
         7987.024     1.579996E-7
         7994.126     3.522560E-7
         8001.239     5.591585E-7
         8008.354     1.678554E-7
         8015.479     1.625687E-7
         8022.606     3.320103E-7
         8029.744     6.041660E-7
         8036.889     8.736431E-7
          8044.04     9.870830E-7
         8051.192     9.097665E-7
         8058.351     4.746546E-7
         8065.521     2.910421E-7
         8072.693     2.429090E-7
         8079.875     2.946571E-7
         8087.064     3.458719E-7
         8094.255     4.898230E-7
         8101.453     6.752410E-7
         8108.661     7.756871E-7
         8115.871     7.484207E-7
         8123.092     7.147218E-7
         8130.319     7.084359E-7
         8137.553     6.533172E-7
         8144.794     6.661088E-7
         8152.032     7.270897E-7
         8159.285     8.237093E-7
         8166.544     9.192739E-7
         8173.806     9.614438E-7
         8181.079     9.190600E-7
         8188.357     6.666762E-7
         8195.639     5.312601E-7
         8202.926     4.696295E-7
         8210.225     4.683644E-7
         8217.525     5.140043E-7
         8224.837     5.591433E-7
         8232.154     5.614096E-7
         8239.479     4.626415E-7
         8246.801     3.650797E-7
         8254.139     3.217071E-7
         8261.482     3.197563E-7
         8268.833     3.178088E-7
         8276.186     1.986378E-7
          8283.55     1.478575E-7
         8290.915     2.157415E-7
         8298.287     4.429802E-7
         8305.671     5.978407E-7
         8313.061     5.799212E-7
         8320.452     3.596262E-7
         8327.855     2.678191E-7
         8335.265     2.719829E-7
         8342.682     2.985220E-7
         8350.095     2.960661E-7
         8357.524     2.513179E-7
         8364.961     1.774864E-7
         8372.398     1.318110E-7
         8379.848     1.751665E-7
         8387.304     3.465505E-7
         8394.757     4.640475E-7
         8402.227     5.108043E-7
         8409.702     4.659660E-7
         8417.185     4.628994E-7
         8424.669     4.076785E-7
         8432.165     3.077837E-7
         8439.667     1.777906E-7
         8447.167     1.715454E-7
         8454.683     1.977207E-7
         8462.205     2.022718E-7
         8469.734     1.163270E-7
         8477.266     1.129636E-7
         8484.809     1.938299E-7
         8492.357     3.335456E-7
         8499.909     5.014635E-7
         8507.467     5.017943E-7
         8515.036     3.881476E-7
         8522.608     2.335331E-7
          8530.19     1.093084E-7
          8537.78     6.719038E-8
         8545.372     5.478959E-8
         8552.971     5.459273E-8
         8560.581     6.387626E-8
         8568.197     1.874697E-7
         8575.821     2.474069E-7
         8583.446     2.133444E-7
         8591.083     1.187838E-7
         8598.723     1.998961E-7
         8606.368     3.143024E-7
         8614.026     2.641509E-7
          8621.69     1.144408E-7
         8629.356     1.542706E-7
         8637.034     3.042833E-7
         8644.719     3.894814E-7
         8652.406     4.027877E-7
           8660.1     3.618083E-7
         8667.805     3.602379E-7
         8675.517     3.303931E-7
         8683.236     2.565342E-7
         8690.957     1.523455E-7
         8698.685     1.516571E-7
         8706.425     2.479561E-7
         8714.166     2.588016E-7
          8721.92     1.802793E-7
          8729.68     1.024206E-7
         8737.442     6.201547E-8
         8745.216     7.478144E-8
         8752.992     1.856225E-7
         8760.775     4.006666E-7
          8768.57     5.119212E-7
         8776.372     3.458011E-7
         8784.181     1.595285E-7
         8791.991     5.719022E-8
         8799.814     9.401214E-8
         8807.639     2.746602E-7
         8815.476     3.286352E-7
         8823.314     2.959220E-7
         8831.165     2.268087E-7
         8839.022     1.892743E-7
         8846.882     1.521262E-7
         8854.748     1.804085E-7
         8862.627     2.151643E-7
         8870.507     1.806380E-7
         8878.399     1.795929E-7
         8886.299     2.347724E-7
         8894.206     1.915767E-7
         8902.114     7.888673E-8
          8910.03     4.410446E-8
         8917.958     1.129175E-7
         8925.888     2.573729E-7
         8933.829     3.442343E-7
         8941.778     3.420510E-7
         8949.729     3.398574E-7
         8957.692     3.700661E-7
         8965.657     3.772566E-7
         8973.634     3.595661E-7
         8981.613     3.241042E-7
         8989.604     2.890391E-7
         8997.604     3.163924E-7
         9005.608     3.694237E-7
         9013.616     3.878079E-7
         9021.631     3.597371E-7
         9029.658     3.573385E-7
         9037.688     3.246124E-7
         9045.729     2.684652E-7
         9053.776     2.186927E-7
         9061.827     2.001837E-7
         9069.885     2.296715E-7
         9077.955     3.496304E-7
         9086.032     3.324121E-7
         9094.111     2.693424E-7
         9102.202     2.398810E-7
         9110.301     2.957291E-7
         9118.402     2.934794E-7
          9126.51     2.438248E-7
          9134.63     1.665426E-7
         9142.758     1.074982E-7
         9150.888     1.066380E-7
         9159.029     1.057731E-7
         9167.179     1.049040E-7
          9175.33     6.706494E-8
         9183.488     3.438477E-8
         9191.659     3.974713E-8
         9199.833     6.702692E-8
         9208.019     6.699771E-8
         9216.211     4.578060E-8
         9224.411     6.192715E-8
         9232.608     1.318147E-7
         9240.822     2.234287E-7
         9249.045     1.950183E-7
         9257.274     1.440108E-7
         9265.506     1.254960E-7
         9273.749     1.009567E-7
         9281.995     5.536187E-8
         9290.249     3.270695E-8
         9298.515     1.070474E-7
         9306.788     2.203354E-7
         9315.063     2.503926E-7
         9323.352     2.039556E-7
         9331.647     1.346842E-7
          9339.95     8.582502E-8
          9348.25     1.078234E-7
         9356.567     1.297496E-7
         9364.893     1.780899E-7
          9373.22     2.264070E-7
          9381.56     2.334945E-7
         9389.906     1.862996E-7
         9398.256     2.051067E-7
         9406.612     1.556716E-7
         9414.982     1.022435E-7
         9423.359     8.406715E-8
         9431.738     9.944497E-8
          9440.13     9.776288E-8
         9448.529     7.608968E-8
         9456.926     1.045179E-7
          9465.34     1.425312E-7
         9473.762     1.445848E-7
          9482.19     1.039839E-7
         9490.622     6.872895E-8
         9499.066     8.630891E-8
         9507.519     1.036497E-7
         9515.972     5.625205E-8
         9524.434     2.127094E-8
         9532.908     2.100052E-8
         9541.385     2.073065E-8
         9549.874     2.046099E-8
         9558.371     3.709436E-8
          9566.87     6.722050E-8
         9575.377     9.975471E-8
         9583.896     1.238726E-7
         9592.424     1.245627E-7
         9600.958     9.606271E-8
         9609.495     1.105690E-7
         9618.046     1.541233E-7
         9626.598     1.624680E-7
         9635.157     1.050408E-7
          9643.73     3.949094E-8
         9652.311     1.725622E-8
         9660.898     2.004494E-8
         9669.489     4.847479E-8
         9678.093     6.271675E-8
         9686.698     5.395282E-8
         9695.312     5.628166E-8
         9703.938     6.887921E-8
         9712.572     6.914217E-8
         9721.208     4.912069E-8
         9729.857     7.403667E-8
          9738.51     1.105139E-7
         9747.174     1.046653E-7
         9755.841     6.579618E-8
         9764.521     3.526970E-8
         9773.209     3.151385E-8
         9781.899     3.741456E-8
         9790.603     2.531615E-8
         9799.309     1.367309E-8
         9808.022     2.257701E-8
         9816.749     3.281035E-8
         9825.483     5.576606E-8
         9834.226     7.047501E-8
          9842.97     6.209938E-8
         9851.728     4.103532E-8
         9860.487     2.247737E-8
         9869.261     3.135159E-8
         9878.036     5.659021E-8
         9886.825     6.818419E-8
         9895.622     7.523501E-8
         9904.421     8.613388E-8
         9913.233     9.747485E-8
         9922.049     8.791064E-8
         9930.871     3.341918E-8
         9939.707     9.451714E-9
         9948.551     1.565357E-8
         9957.402     2.244018E-8
         9966.257     2.382301E-8
         9975.118     2.308110E-8
         9983.993     2.234116E-8
         9992.871     1.746893E-8
         10001.77     6.977047E-9
         10010.66     7.286661E-9
         10019.56     1.310603E-8
         10028.48     1.868733E-8
         10037.39     2.877424E-8
         10046.32     3.145108E-8
         10055.26     3.077788E-8
         10064.21     2.504490E-8
         10073.16     1.766732E-8
         10082.12     2.093710E-8
         10091.09     3.498820E-8
         10100.06     4.380679E-8
         10109.05     1.866108E-8
         10118.04     1.150578E-8
         10127.04     1.742780E-8
         10136.04     3.200039E-8
         10145.06     3.643160E-8
         10154.09     3.122500E-8
         10163.11     2.912161E-8
         10172.15     2.854287E-8
          10181.2     1.695713E-8
         10190.26     1.275176E-8
         10199.33     1.239392E-8
          10208.4     1.541165E-8
         10217.48     2.432045E-8
         10226.57     2.397483E-8
         10235.67     1.783282E-8
         10244.77     1.081039E-8
         10253.88     6.873321E-9
           10263.     9.640569E-9
         10272.13     1.811993E-8
         10281.27     2.284906E-8
         10290.41     8.980621E-9
         10299.56     8.655753E-9
         10308.73     1.803195E-8
          10317.9     2.292326E-8
         10327.08     2.491583E-8
         10336.26     2.308395E-8
         10345.45     1.994724E-8
         10354.66     1.700604E-8
         10363.87     1.509270E-8
         10373.09     1.248534E-8
         10382.31     7.828688E-9
         10391.55     8.587996E-9
         10400.79     1.451826E-8
         10410.05     1.831514E-8
          10419.3     1.436647E-8
         10428.57     1.076925E-8
         10437.85     8.610462E-9
         10447.13     9.608795E-9
         10456.43     8.852283E-9
         10465.72     5.247894E-9
         10475.03     3.592733E-9
         10484.35     4.978097E-9
         10493.68     5.336227E-9
         10503.02     3.704866E-9
         10512.35     3.629283E-9
         10521.71     5.149715E-9
         10531.07     4.343291E-9
         10540.43     3.661938E-9
          10549.8     4.896117E-9
         10559.19     6.070124E-9
         10568.58     6.609107E-9
         10577.99     8.109007E-9
         10587.39     6.880419E-9
         10596.81     5.374015E-9
         10606.24     4.850679E-9
         10615.67     3.385073E-9
         10625.12     1.712059E-9
         10634.56     1.630819E-9
         10644.02     2.836996E-9
         10653.49     3.523976E-9
         10662.97     2.784113E-9
         10672.45     2.369251E-9
         10681.94     3.590471E-9
         10691.45     4.312903E-9
         10700.96     4.574679E-9
         10710.47     4.393305E-9
           10720.     3.437479E-9
         10729.54     2.931379E-9
         10739.08     2.452036E-9
         10748.64     1.999009E-9
          10758.2     1.571811E-9
         10767.77     1.734519E-9
         10777.34     2.522889E-9
         10786.93     3.403084E-9
         10796.53     3.788827E-9
         10806.12     3.179379E-9
         10815.74     2.706381E-9
         10825.36     2.908350E-9
         10834.99     2.631509E-9
         10844.63     2.122640E-9
         10854.28     2.139798E-9
         10863.94     2.279072E-9
         10873.58     2.481271E-9
         10883.27     2.575032E-9
         10892.95     2.184415E-9
         10902.63     1.688622E-9
         10912.33     1.189999E-9
         10922.04    7.146558E-10
         10931.75    7.924352E-10
         10941.47     1.293522E-9
         10951.21     1.377745E-9
         10960.95     1.561819E-9
         10970.71     1.702232E-9
         10980.46     1.700824E-9
         10990.22     1.669258E-9
           11000.     1.033362E-9
