#  Table pcf569wsys.tab  Mon 12:21:16 02-Jun-97

#      WAVELENGTH      THROUGHPUT
#       angstroms                

            1850.     2.671272E-8
         1851.651     2.314453E-8
         1853.301     1.954412E-8
         1854.956     1.590087E-8
         1856.611     1.222640E-8
         1858.267     8.515438E-9
         1859.925     4.765560E-9
         1861.584     2.531703E-7
         1863.246     5.161307E-7
         1864.909     7.816876E-7
         1866.572     1.049657E-6
         1868.237     1.320247E-6
         1869.904     1.593611E-6
         1871.573     1.665880E-6
         1873.242     1.726304E-6
         1874.913     1.787267E-6
         1876.585     1.848778E-6
          1878.26     1.910883E-6
         1879.937     1.972777E-6
         1881.613     1.667239E-6
         1883.292     1.344519E-6
         1884.973     1.018808E-6
         1886.654     6.904760E-7
         1888.338     3.591075E-7
         1890.023     2.943164E-8
         1891.709     2.625016E-8
         1893.396     2.304032E-8
         1895.086     1.980040E-8
         1896.775     1.653618E-8
         1898.469     1.323738E-8
         1900.163     1.017341E-8
         1901.857     9.546329E-9
         1903.555     8.912744E-9
         1905.254     8.273394E-9
         1906.953     7.628727E-9
         1908.655     6.977888E-9
         1910.357     6.357451E-9
         1912.061     5.866912E-9
         1913.768     5.371669E-9
         1915.476     4.871955E-9
         1917.184     4.368080E-9
         1918.894     3.859705E-9
         1920.606     3.013745E-8
          1922.32     1.058352E-7
         1924.035     1.821868E-7
         1925.752     2.591558E-7
          1927.47     3.368264E-7
         1929.189     4.151180E-7
          1930.91     4.147983E-7
         1932.634     3.434779E-7
         1934.358     2.715285E-7
         1936.084     1.989945E-7
         1937.811     1.258179E-7
          1939.54     5.195987E-8
          1941.27     3.135007E-8
         1943.003     3.015366E-8
         1944.737     2.894595E-8
          1946.47     2.772848E-8
         1948.207     2.649819E-8
         1949.947     2.525580E-8
         1951.685     2.247412E-8
         1953.427     1.961566E-8
         1955.171     1.673192E-8
         1956.913     1.382628E-8
          1958.66     1.089154E-8
         1960.408     8.497129E-9
         1962.157     7.950574E-9
         1963.908     7.398700E-9
         1965.658     6.842536E-9
         1967.413     6.280704E-9
         1969.169     5.713811E-9
         1970.925     6.079053E-8
         1972.684     1.666577E-7
         1974.444     2.733707E-7
         1976.205     3.809984E-7
         1977.969     4.896719E-7
         1979.734     5.991383E-7
           1981.5     5.267437E-7
         1983.268     4.210385E-7
         1985.037     3.144711E-7
         1986.809     2.069212E-7
         1988.581     9.851172E-8
         1990.355     2.098457E-8
         1992.131     7.065059E-8
         1993.908     1.207395E-7
         1995.688     1.713153E-7
         1997.467     2.222230E-7
          1999.25     2.736206E-7
         2001.034     2.662667E-7
         2002.818     2.157210E-7
         2004.606     1.645726E-7
         2006.396     1.129401E-7
         2008.184     6.086118E-8
         2009.976     8.201712E-9
         2011.769     1.247197E-8
         2013.565     1.755953E-8
         2015.362     2.269703E-8
         2017.158     2.787804E-8
         2018.958     3.311545E-8
          2020.76     3.622574E-8
         2022.563     3.636689E-8
         2024.368     3.650837E-8
         2026.173     3.665001E-8
         2027.982     3.679200E-8
         2029.791     3.693413E-8
         2031.602     3.360165E-8
         2033.414     2.978158E-8
         2035.228     2.592377E-8
         2037.044     2.202568E-8
         2038.861     1.809183E-8
         2040.681     1.572570E-8
         2042.502     1.604023E-8
         2044.324     1.635710E-8
         2046.147     1.667648E-8
         2047.974     1.699861E-8
           2049.8     1.732311E-8
          2051.63     3.192580E-8
         2053.461     4.842400E-8
         2055.291     6.505638E-8
         2057.125     8.186142E-8
         2058.961     9.882216E-8
         2060.798     1.006108E-7
         2062.637     8.236179E-8
         2064.477     6.395393E-8
         2066.318     4.537680E-8
         2068.164     2.660472E-8
         2070.007     7.770778E-9
         2071.855     8.738676E-9
         2073.704     9.714999E-9
         2075.553     1.069926E-8
         2077.405     1.169202E-8
         2079.259     1.269423E-8
         2081.113     1.214949E-8
         2082.971     1.055835E-8
         2084.829     8.953929E-9
         2086.688     7.335327E-9
          2088.55     5.701200E-9
         2090.414     4.523617E-9
         2092.279     4.991634E-9
         2094.145     5.463440E-9
         2096.014     5.939547E-9
         2097.885     6.419546E-9
         2099.756     6.903196E-9
          2101.63     1.175437E-8
         2103.503     1.729595E-8
         2105.381     2.288925E-8
          2107.26     2.852948E-8
         2109.139     3.421239E-8
         2111.022     3.504840E-8
         2112.906     3.174799E-8
         2114.789     2.842459E-8
         2116.677     2.506947E-8
         2118.564     2.168897E-8
         2120.455     2.087741E-8
         2122.348     2.828778E-8
         2124.241     3.574936E-8
         2126.135     4.326908E-8
         2128.033     5.085010E-8
         2129.932     5.848982E-8
         2131.832     6.504129E-8
         2133.734     7.159896E-8
         2135.637     7.820329E-8
         2137.544     8.486384E-8
          2139.45     9.158447E-8
         2141.359     8.547899E-8
          2143.27     7.408457E-8
         2145.182     6.260763E-8
         2147.096     5.103605E-8
         2149.011     3.938269E-8
         2150.929     3.069349E-8
         2152.848     2.521384E-8
         2154.768     1.969409E-8
         2156.692     1.412698E-8
         2158.615     8.530033E-9
         2160.541     5.391354E-9
         2162.469     8.671398E-9
         2164.397     1.196957E-8
          2166.33     1.529642E-8
         2168.263     1.864410E-8
         2170.196     2.136950E-8
         2172.133     1.841701E-8
          2174.07     1.544777E-8
         2176.011     1.245722E-8
         2177.953     9.447508E-9
         2179.895     6.420851E-9
          2181.84     7.797100E-9
         2183.787     9.435018E-9
         2185.735     1.108166E-8
         2187.686     1.273873E-8
         2189.637     1.440438E-8
          2191.59     2.687960E-8
         2193.546     4.190648E-8
         2195.503     5.701179E-8
         2197.462     7.219014E-8
         2199.423     8.746075E-8
         2201.385     1.045084E-7
         2203.348     1.225206E-7
         2205.315     1.408306E-7
         2207.283     1.594263E-7
         2209.252     1.782977E-7
         2211.222     1.809352E-7
         2213.196     1.733917E-7
          2215.17     1.657175E-7
         2217.147     1.579007E-7
         2219.125     1.499461E-7
         2221.104     1.320068E-7
         2223.086     1.058722E-7
         2225.071     7.931420E-8
         2227.055     5.239673E-8
         2229.042     2.503531E-8
         2231.031     1.603557E-8
         2233.021     2.447175E-8
         2235.015     3.303960E-8
         2237.008     4.171872E-8
         2239.003     5.052119E-8
         2241.002     6.192674E-8
         2242.999     7.595192E-8
         2245.002     9.019413E-8
         2247.005     1.046128E-7
         2249.009     1.192261E-7
         2251.016     1.173281E-7
         2253.024     9.899090E-8
         2255.033     8.039999E-8
         2257.046     6.154043E-8
         2259.061     4.242449E-8
         2261.075     3.095724E-8
         2263.092     2.628136E-8
         2265.112     2.153975E-8
         2267.134     1.673492E-8
         2269.156     1.187013E-8
         2271.181     9.611147E-9
         2273.207     9.246133E-9
         2275.234     8.875966E-9
         2277.266     8.500172E-9
         2279.296     8.119950E-9
          2281.33     7.773936E-9
         2283.366     7.444584E-9
         2285.402     7.111196E-9
         2287.441     6.772948E-9
         2289.483     6.430265E-9
         2291.525     9.740244E-9
          2293.57     1.433972E-8
         2295.615     1.898675E-8
         2297.663     2.369972E-8
         2299.715     2.847412E-8
         2301.765     2.676079E-8
          2303.82     2.396044E-8
         2305.876     2.112491E-8
         2307.932     1.825576E-8
         2309.992     1.534908E-8
         2312.051     1.540456E-8
         2314.116     1.547151E-8
          2316.18     1.553837E-8
         2318.246     1.560523E-8
         2320.315     1.600603E-8
         2322.385     1.828049E-8
         2324.457     2.058184E-8
         2326.531     2.290720E-8
         2328.606     2.525830E-8
         2330.685     2.553787E-8
         2332.764     2.152606E-8
         2334.845     1.746742E-8
         2336.927     1.336271E-8
         2339.012     9.211227E-9
         2341.101     1.012475E-8
         2343.188     1.566219E-8
         2345.279     2.126060E-8
         2347.372     2.692289E-8
         2349.467     3.264541E-8
         2351.562     3.318887E-8
         2353.661     3.193852E-8
         2355.759     3.067521E-8
         2357.862     2.939552E-8
         2359.966     2.810113E-8
         2362.071     2.398259E-8
         2364.179     1.977103E-8
         2366.288     1.551783E-8
         2368.398     1.121986E-8
         2370.512     1.029434E-8
         2372.628     2.011793E-8
         2374.744     3.003346E-8
         2376.863     4.005389E-8
         2378.983     5.016810E-8
         2381.105     5.741298E-8
          2383.23     6.198616E-8
         2385.357     6.660166E-8
         2387.485     7.125757E-8
         2389.615     7.595609E-8
         2391.747     9.140277E-8
         2393.881     1.093553E-7
         2396.017     1.274861E-7
         2398.154     1.457728E-7
         2400.293     1.615844E-7
         2402.435     1.607936E-7
          2404.58     1.599905E-7
         2406.724     1.591756E-7
         2408.872     1.583480E-7
         2411.022     1.464322E-7
         2413.171     1.221561E-7
         2415.326     9.761314E-8
         2417.479     7.289447E-8
         2419.637     4.791806E-8
         2421.796     3.797798E-8
         2423.957     3.105173E-8
          2426.12     2.406003E-8
         2428.284     1.701133E-8
         2430.451     1.229793E-8
         2432.619     1.672683E-8
         2434.789     2.119266E-8
         2436.962     2.569911E-8
         2439.136     3.024281E-8
         2441.312     2.907967E-8
          2443.49     2.411032E-8
          2445.67     1.909600E-8
         2447.853     1.403876E-8
         2450.036     9.553733E-9
         2452.222     4.123898E-8
         2454.409     7.318320E-8
           2456.6     1.054090E-7
         2458.792     1.378922E-7
         2460.985     1.416813E-7
          2463.18     1.098539E-7
         2465.379     7.774633E-8
         2467.579     4.538231E-8
         2469.778     1.279733E-8
         2471.983     1.241168E-8
          2474.19     1.567471E-8
         2476.396     1.895746E-8
         2478.606     2.226983E-8
         2480.817     2.355759E-8
         2483.029     2.134358E-8
         2485.247     1.910880E-8
         2487.462     1.686032E-8
         2489.682     1.459117E-8
         2491.904     3.615265E-8
         2494.125     6.184572E-8
         2496.353     8.778591E-8
         2498.579     1.138945E-7
         2500.808     1.210281E-7
          2503.04     9.433968E-8
         2505.272     6.746059E-8
         2507.509     4.035179E-8
         2509.745     1.305400E-8
         2511.985     3.034723E-8
         2514.225     5.354431E-8
         2516.468     7.692174E-8
         2518.714     1.004905E-7
         2520.962     1.161596E-7
          2523.21     1.210923E-7
         2525.462     1.260637E-7
         2527.715     1.310675E-7
         2529.971     1.361103E-7
         2532.229     1.085642E-7
         2534.486     8.040681E-8
         2536.748     5.199776E-8
          2539.01     2.335024E-8
         2541.277     3.024273E-8
         2543.545     6.489037E-8
         2545.813     9.965638E-8
         2548.084     1.345589E-7
         2550.358     1.599116E-7
         2552.635     1.333208E-7
         2554.911     1.066428E-7
         2557.191     7.983779E-8
         2559.471     5.295795E-8
         2561.755     5.122330E-8
         2564.042     5.712140E-8
         2566.329     6.303892E-8
         2568.619     6.898205E-8
         2570.908     7.404810E-8
         2573.205     7.778064E-8
           2575.5     8.152183E-8
         2577.797     8.527756E-8
         2580.097     8.823411E-8
         2582.399     7.273575E-8
         2584.704     5.716307E-8
          2587.01     4.152949E-8
         2589.318     2.584024E-8
         2591.629     2.618454E-8
          2593.94     3.328822E-8
         2596.254     4.041910E-8
         2598.573     4.758762E-8
         2600.889     4.984780E-8
          2603.21     4.418370E-8
         2605.532     3.849982E-8
         2607.856     3.279206E-8
         2610.185     2.724531E-8
         2612.512     2.390769E-8
         2614.843     2.055232E-8
         2617.177     1.718272E-8
          2619.51     1.380321E-8
         2621.849     1.271047E-8
         2624.188     1.222633E-8
         2626.528     1.174005E-8
         2628.873     1.125129E-8
         2631.217     1.180512E-8
         2633.566     1.333192E-8
         2635.916     1.486480E-8
         2638.267     1.640294E-8
          2640.62     1.732304E-8
         2642.977     1.649813E-8
         2645.334     1.567004E-8
         2647.695     1.483785E-8
         2650.057     1.462963E-8
         2652.422     3.990980E-8
         2654.788     6.527778E-8
         2657.157     9.076714E-8
         2659.526     1.163301E-7
         2661.899     1.351182E-7
         2664.275     1.522546E-7
         2666.652     1.694502E-7
         2669.031     1.867240E-7
         2671.412     1.728140E-7
         2673.796     1.373387E-7
         2676.181     1.017391E-7
          2678.57     6.596840E-8
          2680.96     5.620033E-8
          2683.35     8.541257E-8
         2685.746     1.147963E-7
          2688.14     1.442462E-7
          2690.54     1.599091E-7
         2692.941     1.274611E-7
         2695.343     9.489378E-8
         2697.748     6.217469E-8
         2700.153     3.271572E-8
         2702.563     5.266379E-8
         2704.975     7.275258E-8
         2707.387     9.297214E-8
         2709.804     1.133495E-7
         2712.222     1.228055E-7
         2714.642     1.313421E-7
         2717.063     1.399365E-7
         2719.486     1.485907E-7
         2721.915     1.285290E-7
         2724.343     1.006018E-7
         2726.772     7.247281E-8
         2729.205     4.414162E-8
          2731.64     4.626476E-8
         2734.078     6.333570E-8
         2736.517     8.051667E-8
         2738.958     9.781650E-8
         2741.402     1.066604E-7
         2743.849     1.091562E-7
         2746.296     1.116659E-7
         2748.747     1.141928E-7
         2751.198     1.173892E-7
         2753.653     1.212876E-7
         2756.111     1.251951E-7
         2758.569     1.291096E-7
         2761.031     1.191551E-7
         2763.495     8.988009E-8
         2765.958     6.057058E-8
         2768.427     3.115671E-8
         2770.898     1.800373E-8
         2773.369     3.346774E-8
         2775.844     4.897727E-8
          2778.32     6.451405E-8
         2780.799     7.332370E-8
          2783.28     6.789904E-8
         2785.764     6.246125E-8
         2788.249     5.701455E-8
         2790.736     5.075631E-8
         2793.227     4.257683E-8
          2795.72     3.437876E-8
         2798.213     2.616688E-8
         2800.709     1.972844E-8
         2803.209     1.779584E-8
         2805.709     1.586004E-8
         2808.213     1.391859E-8
         2810.718     1.337444E-8
         2813.226     1.632247E-8
         2815.736     1.927519E-8
         2818.247     2.223435E-8
         2820.764     2.356407E-8
         2823.278     2.113310E-8
         2825.798     1.869386E-8
          2828.32     1.624938E-8
         2830.843     2.297673E-8
         2833.369     4.805013E-8
         2835.898     7.317875E-8
         2838.426     9.832869E-8
         2840.959     1.047550E-7
         2843.495     8.028167E-8
         2846.031     5.577225E-8
         2848.571     3.119366E-8
         2851.112     2.379176E-8
         2853.655     3.853098E-8
         2856.202     5.330855E-8
         2858.751     6.811604E-8
         2861.301     6.824121E-8
         2863.853     5.422249E-8
         2866.407     4.017452E-8
         2868.965     2.608915E-8
         2871.526     2.283837E-8
         2874.087     2.695440E-8
         2876.652     3.108156E-8
         2879.218     3.521394E-8
         2881.788     3.540682E-8
         2884.358     3.386991E-8
         2886.931     3.232989E-8
         2889.507     3.078601E-8
         2892.084     3.020758E-8
         2894.666     2.985699E-8
         2897.248     2.950590E-8
         2899.832     2.915417E-8
         2902.421     3.404553E-8
          2905.01     3.928591E-8
         2907.601     4.451739E-8
         2910.198     4.916163E-8
          2912.79     4.671415E-8
         2915.392     4.426467E-8
         2917.992     4.182244E-8
         2920.594     3.990723E-8
         2923.203     3.976008E-8
         2925.807     3.961332E-8
          2928.42     3.946626E-8
         2931.033     3.671727E-8
         2933.646     3.000318E-8
         2936.266     2.328957E-8
         2938.885     1.659717E-8
         2941.506     3.806313E-8
         2944.131     8.034293E-8
         2946.757     1.225142E-7
         2949.387     1.646273E-7
         2952.018     2.045505E-7
         2954.653     2.437791E-7
          2957.29     2.829278E-7
         2959.926     3.219492E-7
         2962.567     3.344195E-7
          2965.21     3.460900E-7
         2967.856     3.577400E-7
         2970.505     3.493443E-7
         2973.155     2.561133E-7
         2975.808     1.630158E-7
         2978.461     7.023286E-8
         2981.121     2.093787E-8
          2983.78     3.139945E-8
         2986.441     4.183822E-8
         2989.104     5.225310E-8
         2991.772     8.691877E-8
         2994.442     1.337512E-7
         2997.113     1.804537E-7
         2999.788     2.270810E-7
         3002.464     2.324534E-7
         3005.142     2.342823E-7
         3007.826     2.361078E-7
         3010.507     2.279735E-7
         3013.194     1.771388E-7
         3015.883     1.264205E-7
         3018.573     7.585125E-8
         3021.267     5.267026E-8
          3023.96     6.027092E-8
          3026.66     6.786684E-8
          3029.36     7.543520E-8
         3032.062     6.856882E-8
          3034.77     5.723436E-8
         3037.475     4.594756E-8
         3040.186     3.526227E-8
         3042.897     3.257004E-8
         3045.612     2.988400E-8
         3048.332     2.720108E-8
         3051.051     2.729403E-8
         3053.772     3.177544E-8
         3056.497     3.624836E-8
         3059.222     4.070357E-8
         3061.954     3.893735E-8
         3064.685     3.470610E-8
         3067.418     3.048521E-8
         3070.156     2.627721E-8
         3072.896     2.215200E-8
         3075.637     1.803971E-8
          3078.38     1.393856E-8
         3081.126     1.577466E-8
         3083.877     2.613636E-8
         3086.628     3.645778E-8
         3089.381     4.674985E-8
         3092.137     5.705443E-8
         3094.895     6.734177E-8
         3097.659     7.761275E-8
         3100.422     8.371337E-8
         3103.187     6.682844E-8
         3105.955     4.987776E-8
         3108.729     3.284008E-8
         3111.501     2.921259E-8
         3114.277     3.699498E-8
         3117.056     4.481225E-8
         3119.836     5.265417E-8
         3122.621     6.596745E-8
         3125.406     7.966553E-8
         3128.195     9.342371E-8
         3130.985     9.366290E-8
         3133.778     6.899997E-8
         3136.575     4.422641E-8
         3139.373     1.937224E-8
         3142.175     5.482014E-8
         3144.979     1.078744E-7
         3147.784     1.611062E-7
         3150.592     1.933397E-7
         3153.405     1.460134E-7
         3156.218     9.856558E-8
         3159.035     5.090126E-8
         3161.851     3.234786E-8
         3164.674     2.900348E-8
         3167.497     2.565015E-8
         3170.322     2.824904E-8
         3173.152     7.732655E-8
         3175.982     1.265669E-7
         3178.816     1.760257E-7
         3181.652     1.705998E-7
          3184.49     1.256194E-7
         3187.333     8.040266E-8
         3190.175     3.755337E-8
         3193.022     3.214526E-8
          3195.87     2.671904E-8
         3198.722     2.126860E-8
         3201.577     3.538800E-8
         3204.433     6.545869E-8
         3207.291     9.564471E-8
         3210.151     1.231431E-7
         3213.018     1.004233E-7
         3215.884     7.764452E-8
         3218.752     5.477555E-8
         3221.623     5.028815E-8
         3224.499     6.001810E-8
         3227.376     6.978603E-8
         3230.255     7.750701E-8
         3233.136     6.383340E-8
          3236.02     5.010585E-8
         3238.908     3.631601E-8
         3241.799     8.987361E-8
          3244.69     1.845871E-7
         3247.584     2.796821E-7
         3250.485     3.440866E-7
         3253.384     2.531191E-7
         3256.286     1.617929E-7
         3259.192     7.005313E-8
         3262.097     4.566883E-8
          3265.01     4.730352E-8
         3267.922     4.894228E-8
         3270.837     4.907928E-8
         3273.758     4.546029E-8
         3276.675     4.183624E-8
         3279.601     3.818860E-8
         3282.526     7.819919E-8
         3285.454     1.252887E-7
         3288.388     1.726184E-7
         3291.319     2.241109E-7
         3294.257     2.808605E-7
         3297.195     3.377958E-7
         3300.137     3.887797E-7
         3303.083     3.129432E-7
         3306.029     2.368493E-7
         3308.979     1.604153E-7
         3311.931     1.284999E-7
         3314.885     1.201806E-7
         3317.844     1.118230E-7
         3320.803     1.010633E-7
         3323.767     8.386228E-8
         3326.731     6.660270E-8
           3329.7     4.926304E-8
          3332.67     1.016892E-7
         3335.643     1.621814E-7
         3338.622     2.229840E-7
         3341.599     2.537938E-7
          3344.58     2.586692E-7
         3347.563     2.635628E-7
         3350.551     2.838699E-7
         3353.541     3.725212E-7
         3356.532     4.614744E-7
         3359.528     5.508321E-7
         3362.524     5.601578E-7
         3365.525     5.544529E-7
         3368.527     5.487263E-7
         3371.532     5.377086E-7
         3374.541     5.215581E-7
         3377.551     5.053501E-7
         3380.565     4.667595E-7
         3383.582     3.311110E-7
         3386.598     1.950805E-7
         3389.623     5.824765E-8
         3392.646     3.526184E-8
         3395.672     2.850532E-8
         3398.705     2.171311E-8
         3401.732     5.617866E-8
          3404.77     1.218770E-7
         3407.807     1.877617E-7
         3410.847     2.625135E-7
         3413.893     3.600158E-7
         3416.938     4.577950E-7
         3419.985     5.559770E-7
         3423.038     4.718079E-7
         3426.089     3.865120E-7
         3429.148     3.007088E-7
         3432.207     2.548167E-7
         3435.268     2.242691E-7
         3438.334     1.935757E-7
         3441.401     1.928656E-7
         3444.473     2.280407E-7
         3447.545     2.633344E-7
         3450.622     3.090316E-7
         3453.701     3.954497E-7
         3456.782     4.821621E-7
         3459.865     5.692385E-7
         3462.951     5.019785E-7
         3466.042     4.273014E-7
         3469.135     3.523127E-7
         3472.229     3.641199E-7
         3475.326     4.098472E-7
         3478.426     4.557637E-7
         3481.532     5.068471E-7
         3484.638     5.631490E-7
         3487.746     6.196805E-7
         3490.859     6.946771E-7
         3493.972     8.177930E-7
         3497.091     9.414916E-7
          3500.21     1.054912E-6
         3503.334     1.019635E-6
          3506.46     9.842014E-7
         3509.586     9.486550E-7
          3512.72     8.362543E-7
         3515.852     7.118961E-7
         3518.989     5.868586E-7
          3522.13     6.429074E-7
         3525.271     7.855303E-7
         3528.418     9.288480E-7
         3531.563     1.003448E-6
         3534.717     1.008179E-6
          3537.87     1.012920E-6
         3541.025     9.802525E-7
         3544.188     8.693205E-7
         3547.349     7.580447E-7
         3550.513     6.596005E-7
         3553.679     6.298026E-7
         3556.849     5.998708E-7
         3560.026     5.697177E-7
         3563.201     5.333752E-7
         3566.379     4.968716E-7
         3569.562     4.601787E-7
         3572.746     5.611257E-7
         3575.935     6.846299E-7
         3579.124     8.085941E-7
         3582.316     8.242428E-7
         3585.513     7.986648E-7
         3588.714     7.729673E-7
         3591.915     8.834201E-7
         3595.118     1.086141E-6
         3598.325     1.289779E-6
         3601.538     1.385368E-6
         3604.751     1.362196E-6
         3607.966     1.338916E-6
         3611.184     1.312229E-6
         3614.409     1.279697E-6
         3617.633     1.247054E-6
         3620.859     1.203152E-6
         3624.089     1.128353E-6
         3627.322     1.053215E-6
         3630.561     9.897169E-7
         3633.799     9.837694E-7
          3637.04     9.777905E-7
         3640.286     9.762863E-7
         3643.533     1.021522E-6
         3646.785     1.066981E-6
         3650.038     1.111470E-6
         3653.295     1.058161E-6
         3656.556     1.004600E-6
         3659.815     9.508646E-7
         3663.082     9.741052E-7
         3666.353     1.002112E-6
         3669.621     1.030190E-6
         3672.896     1.034834E-6
         3676.172     1.036398E-6
         3679.451     1.037965E-6
         3682.737     1.051080E-6
         3686.022     1.066554E-6
         3689.309     1.082092E-6
           3692.6     1.166172E-6
         3695.896     1.268921E-6
         3699.194     1.372139E-6
         3702.494     1.411955E-6
         3705.798     1.431280E-6
         3709.101     1.450662E-6
         3712.412     1.513679E-6
         3715.725     1.593247E-6
         3719.039     1.673116E-6
         3722.358     1.657264E-6
         3725.678     1.602102E-6
         3729.004     1.546644E-6
          3732.33     1.512690E-6
         3735.659     1.487889E-6
         3738.995     1.462937E-6
          3742.33     1.493164E-6
         3745.668     1.547430E-6
         3749.009     1.601936E-6
         3752.354     1.617119E-6
         3755.703     1.615642E-6
         3759.053     1.614151E-6
         3762.408     1.613992E-6
         3765.764     1.614355E-6
         3769.125     1.614712E-6
         3772.487     1.637757E-6
         3775.852     1.668905E-6
         3779.222     1.700210E-6
         3782.594     1.682432E-6
         3785.968     1.649780E-6
         3789.345     1.616970E-6
         3792.725     1.688198E-6
         3796.112     1.784960E-6
         3799.498     1.882039E-6
         3802.887     1.851474E-6
         3806.279     1.798433E-6
         3809.676     1.745106E-6
         3813.076     1.701722E-6
         3816.477     1.659232E-6
         3819.881     1.616543E-6
          3823.29     1.642262E-6
           3826.7     1.670559E-6
         3830.116     1.703126E-6
         3833.532     1.853909E-6
         3836.951     2.005359E-6
         3840.378     2.139649E-6
         3843.803     2.128660E-6
         3847.232     2.117613E-6
         3850.663     2.101406E-6
         3854.102     2.063724E-6
          3857.54     2.025908E-6
          3860.98     2.011629E-6
         3864.426     2.056990E-6
         3867.875     2.102546E-6
         3871.325     2.140495E-6
         3874.778     2.166106E-6
         3878.234     2.191820E-6
         3881.695     2.221621E-6
         3885.157     2.255668E-6
         3888.625     2.289879E-6
         3892.094     2.308348E-6
         3895.565     2.316443E-6
         3899.044     2.324574E-6
         3902.521     2.295966E-6
         3906.002     2.253244E-6
         3909.489     2.210299E-6
         3912.975     2.259259E-6
         3916.468     2.324339E-6
         3919.961     2.389651E-6
         3923.457     2.472558E-6
         3926.961     2.556118E-6
         3930.462     2.624194E-6
         3933.969     2.589020E-6
         3937.478     2.553703E-6
         3940.992     2.527167E-6
          3944.51     2.523359E-6
         3948.028     2.519525E-6
          3951.55     2.527400E-6
         3955.074     2.550268E-6
         3958.606     2.573253E-6
         3962.137     2.589825E-6
         3965.671     2.602220E-6
          3969.21     2.614665E-6
          3972.75     2.682589E-6
         3976.296     2.766804E-6
         3979.843     2.851315E-6
         3983.395     2.814396E-6
          3986.95     2.771654E-6
         3990.504     2.732072E-6
         3994.065     2.712306E-6
          3997.63     2.692445E-6
         4001.196     2.686608E-6
         4004.767     2.708736E-6
         4008.339     2.730862E-6
         4011.914     2.740917E-6
         4015.494     2.740480E-6
         4019.078     2.740041E-6
         4022.663     2.723873E-6
         4026.251     2.702245E-6
         4029.844     2.680591E-6
         4033.441     2.714331E-6
         4037.039     2.750571E-6
         4040.639     2.783276E-6
         4044.243     2.799538E-6
         4047.855     2.815826E-6
         4051.465     2.834026E-6
         4055.079     2.855056E-6
         4058.698     2.876104E-6
         4062.316     2.874275E-6
         4065.944     2.859558E-6
          4069.57     2.844853E-6
           4073.2     2.858123E-6
         4076.838     2.875176E-6
         4080.472     2.886871E-6
         4084.114     2.862797E-6
         4087.756     2.838726E-6
         4091.405     2.830384E-6
         4095.056     2.847218E-6
         4098.708     2.864044E-6
         4102.367     2.921920E-6
         4106.026     3.002165E-6
         4109.688     3.082422E-6
         4113.356     3.071397E-6
         4117.025     3.051882E-6
         4120.699     3.035022E-6
         4124.375     3.029543E-6
         4128.056     3.024057E-6
         4131.738     3.035203E-6
         4135.423     3.064967E-6
         4139.116     3.094773E-6
         4142.808     3.105883E-6
         4146.503     3.111118E-6
         4150.201     3.113985E-6
         4153.903     3.075723E-6
         4157.613     3.037411E-6
         4161.321     3.024965E-6
         4165.033     3.059198E-6
         4168.748     3.093434E-6
         4172.466     3.094417E-6
         4176.192     3.078479E-6
         4179.917     3.062556E-6
         4183.645     3.114800E-6
         4187.379     3.168634E-6
         4191.116     3.202806E-6
         4194.854     3.190788E-6
         4198.596     3.178767E-6
         4202.343     3.193963E-6
         4206.094     3.225546E-6
         4209.845     3.257191E-6
         4213.603     3.263010E-6
         4217.358     3.267720E-6
         4221.123     3.266907E-6
          4224.89     3.253035E-6
         4228.658     3.239129E-6
         4232.432     3.248751E-6
         4236.208     3.271412E-6
         4239.988     3.294142E-6
          4243.77     3.299739E-6
         4247.555     3.305292E-6
         4251.348     3.293382E-6
          4255.14     3.249727E-6
         4258.936     3.205951E-6
         4262.734     3.142905E-6
         4266.537     3.072219E-6
         4270.347     3.001020E-6
         4274.155     2.927311E-6
         4277.968     2.853393E-6
         4281.786     2.759115E-6
         4285.605     2.641708E-6
          4289.43     2.523929E-6
         4293.256     2.414986E-6
         4297.085     2.307363E-6
         4300.922     2.195871E-6
         4304.759     2.073313E-6
         4308.598     1.950452E-6
         4312.441     1.995008E-6
          4316.29     2.136243E-6
         4320.142     2.269232E-6
         4323.996     2.177476E-6
         4327.854     2.085433E-6
         4331.715     2.010302E-6
         4335.581     1.956376E-6
         4339.448     1.902351E-6
         4343.318     1.935217E-6
         4347.195     1.982707E-6
         4351.072     2.000203E-6
         4354.956     1.938869E-6
          4358.84     1.877418E-6
         4362.728     1.791976E-6
         4366.624     1.696028E-6
         4370.519     1.671392E-6
         4374.417     2.112542E-6
         4378.318     2.554745E-6
         4382.229     3.023387E-6
         4386.137     3.511278E-6
         4390.049     3.997597E-6
         4393.967     4.265934E-6
         4397.889     4.534969E-6
         4401.812     4.794457E-6
         4405.738     5.042938E-6
         4409.667     5.292035E-6
         4413.603     5.636272E-6
         4417.542     5.990082E-6
         4421.482     6.205057E-6
         4425.426     6.188819E-6
         4429.373     6.172531E-6
         4433.329     6.299763E-6
         4437.283     6.454219E-6
         4441.241     6.477723E-6
         4445.205     6.213087E-6
         4449.169     5.947954E-6
          4453.14     5.591412E-6
         4457.112     5.210181E-6
         4461.088     4.858635E-6
         4465.069     4.587475E-6
         4469.052     4.315817E-6
         4473.041     4.109787E-6
          4477.03     3.924139E-6
         4481.028     3.786902E-6
         4485.022     3.791349E-6
         4489.025     3.795809E-6
         4493.032     3.794939E-6
         4497.039     3.792345E-6
         4501.053     3.801910E-6
         4505.067     3.845864E-6
         4509.086     3.890093E-6
         4513.107     3.881391E-6
         4517.136     3.856747E-6
         4521.167     3.859725E-6
           4525.2     3.931516E-6
         4529.238     4.003864E-6
         4533.281     4.006266E-6
         4537.324     3.992140E-6
         4541.371     3.988267E-6
         4545.422     4.004818E-6
         4549.479     4.021408E-6
         4553.539     4.048253E-6
           4557.6     4.076714E-6
         4561.668     4.095081E-6
         4565.734     4.098680E-6
         4569.809     4.102198E-6
         4573.887     4.144425E-6
         4577.967     4.188793E-6
         4582.053     4.193632E-6
         4586.142     4.158789E-6
         4590.233     4.126669E-6
         4594.327     4.146019E-6
         4598.425     4.165416E-6
         4602.529     4.169799E-6
         4606.637     4.164671E-6
         4610.746     4.179216E-6
          4614.86     4.283663E-6
         4618.979     4.388886E-6
         4623.097     4.389869E-6
         4627.223     4.355989E-6
          4631.35     4.335207E-6
         4635.483     4.341991E-6
         4639.621     4.348717E-6
         4643.759     4.454122E-6
           4647.9     4.570282E-6
         4652.046     4.613372E-6
         4656.198     4.580493E-6
         4660.354     4.547727E-6
         4664.511     4.519924E-6
         4668.673     4.491774E-6
          4672.84     4.494896E-6
         4677.005     4.512741E-6
          4681.18     4.531998E-6
         4685.355     4.554734E-6
         4689.537     4.577557E-6
         4693.722     4.603907E-6
         4697.909     4.630772E-6
         4702.102     4.671296E-6
         4706.293     4.725494E-6
         4710.493     4.786526E-6
         4714.697     4.896639E-6
         4718.902     5.007430E-6
         4723.114     5.244818E-6
          4727.33     5.528447E-6
         4731.543     5.894092E-6
         4735.766     6.402554E-6
          4739.99     6.914550E-6
         4744.221     7.905149E-6
         4748.455     8.904294E-6
          4752.69     1.071644E-5
         4756.932     1.300878E-5
         4761.172     1.584399E-5
         4765.421     2.009558E-5
         4769.674     2.437909E-5
         4773.929     3.382307E-5
         4778.189     4.377179E-5
         4782.454     5.794620E-5
         4786.719     7.529409E-5
         4790.989     9.753853E-5
         4795.262     1.358315E-4
         4799.542     1.744352E-4
         4803.826     2.318619E-4
          4808.11     2.919062E-4
         4812.401     3.848409E-4
         4816.696     5.040765E-4
         4820.993     6.356307E-4
         4825.292     8.065807E-4
         4829.597     9.788163E-4
         4833.907     0.001242673
         4838.221     0.001517866
         4842.537     0.001885213
         4846.855     0.002318806
         4851.179     0.002808802
         4855.508     0.003445183
         4859.842     0.004086184
         4864.177     0.004816448
         4868.518     0.005555646
         4872.863     0.006500235
         4877.209     0.007555066
          4881.56     0.008632405
         4885.914     0.009743943
         4890.277      0.01088675
         4894.639      0.01236146
         4899.004      0.01384663
         4903.376      0.01531735
         4907.748      0.01678915
          4912.13      0.01842948
         4916.512      0.02024418
         4920.897      0.02204128
         4925.289      0.02373365
         4929.685      0.02543789
         4934.082      0.02740214
         4938.482      0.02939925
         4942.887      0.03125305
         4947.301      0.03303881
         4951.714      0.03491327
         4956.131      0.03692519
         4960.554      0.03891558
         4964.976      0.04066466
          4969.41      0.04242864
         4973.842      0.04433025
         4978.278      0.04626399
         4982.724      0.04800389
         4987.168      0.04962048
         4991.617      0.05128569
         4996.069      0.05302877
         5000.528      0.05475208
         5004.991      0.05624679
         5009.455       0.0577515
         5013.923      0.05932143
         5018.398      0.06091113
         5022.874      0.06234061
         5027.357      0.06368539
         5031.841      0.06504865
         5036.329      0.06643587
         5040.827      0.06778998
         5045.323      0.06895408
         5049.823      0.07012599
         5054.327      0.07134166
         5058.838      0.07256761
         5063.353      0.07366059
         5067.869       0.0747107
          5072.39      0.07576516
         5076.919      0.07682531
         5081.448      0.07783677
          5085.98      0.07873895
         5090.516      0.07964802
          5095.06      0.08057592
         5099.607      0.08150923
         5104.155      0.08231948
         5108.708       0.0831221
         5113.265      0.08393556
         5117.828      0.08475657
         5122.396      0.08552182
         5126.965      0.08623568
         5131.538      0.08695582
          5136.12      0.08768588
         5140.701      0.08840532
         5145.287      0.08905383
         5149.876      0.08970535
         5154.472      0.09035107
         5159.072      0.09099951
         5163.674      0.09158947
         5168.283      0.09216688
         5172.895      0.09275267
         5177.506      0.09334387
         5182.127      0.09390403
         5186.749      0.09442588
         5191.378      0.09495188
         5196.012      0.09548413
         5200.646      0.09601165
         5205.285      0.09650164
         5209.928       0.0969933
         5214.577      0.09748318
         5219.231      0.09797468
         5223.887      0.09844115
         5228.549      0.09890412
         5233.215      0.09935793
          5237.88      0.09980772
         5242.555       0.1002482
         5247.231       0.1006802
         5251.914       0.1011036
         5256.601       0.1015137
          5261.29       0.1019122
         5265.985       0.1022793
          5270.68       0.1026514
         5275.383        0.103053
         5280.092       0.1034546
         5284.801       0.1038099
         5289.518        0.104166
         5294.239       0.1045308
         5298.958       0.1048968
         5303.687       0.1052428
         5308.418       0.1055831
         5313.155       0.1059141
         5317.897       0.1062405
         5322.641       0.1065592
         5327.391       0.1068721
          5332.14       0.1071805
         5336.899       0.1074843
         5341.662       0.1077862
         5346.426       0.1080845
         5351.198       0.1083741
         5355.974       0.1086373
         5360.751       0.1089037
         5365.532       0.1091892
         5370.318       0.1094728
         5375.111       0.1097282
         5379.908       0.1099835
         5384.707       0.1102343
         5389.513       0.1104849
         5394.323       0.1107077
         5399.131       0.1109266
          5403.95       0.1111598
          5408.77       0.1113958
         5413.597       0.1115918
         5418.429       0.1117737
         5423.262       0.1119858
         5428.099       0.1122125
          5432.94       0.1124097
         5437.792       0.1125875
         5442.643       0.1127645
         5447.497       0.1129406
         5452.359       0.1131065
         5457.225       0.1132613
         5462.092       0.1134152
         5466.964       0.1135683
          5471.84       0.1137152
         5476.724       0.1138524
         5481.612       0.1139908
         5486.501       0.1141324
         5491.398        0.114257
         5496.293       0.1143399
         5501.198       0.1144222
         5506.108       0.1145051
         5511.019       0.1145829
         5515.938       0.1146441
          5520.86       0.1147052
         5525.785       0.1147703
         5530.713       0.1148264
         5535.646       0.1148353
         5540.587       0.1148463
         5545.532        0.114883
         5550.478       0.1149147
         5555.432       0.1149108
         5560.387       0.1149056
         5565.347       0.1149032
         5570.313       0.1148955
         5575.282       0.1148299
         5580.258       0.1147654
         5585.238       0.1147546
          5590.22       0.1147397
         5595.206       0.1146715
         5600.197       0.1145973
         5605.198       0.1144193
         5610.197        0.114238
         5615.201       0.1139964
         5620.213       0.1137549
         5625.226       0.1135499
         5630.246       0.1133414
         5635.268       0.1130923
         5640.294        0.112843
         5645.328       0.1126116
         5650.367       0.1123758
         5655.406       0.1121001
         5660.451       0.1118228
         5665.502       0.1115437
         5670.559       0.1112598
         5675.617        0.110948
         5680.679       0.1106467
         5685.752       0.1104231
         5690.823       0.1101834
         5695.899       0.1098651
         5700.979       0.1095452
         5706.064       0.1092236
          5711.16       0.1089017
         5716.254       0.1085839
         5721.353       0.1082492
         5726.456       0.1078706
         5731.567       0.1074965
         5736.682       0.1071356
         5741.799       0.1067446
          5746.92        0.106299
         5752.053        0.105892
         5757.183       0.1055457
         5762.318       0.1051516
         5767.458       0.1046995
         5772.602        0.104274
         5777.757       0.1038743
         5782.911       0.1034243
         5788.068       0.1029343
         5793.237       0.1024915
         5798.401       0.1020773
         5803.577       0.1015796
         5808.753       0.1010438
         5813.937       0.1005833
         5819.126       0.1001455
         5824.316      0.09961388
         5829.511       0.0990613
         5834.711      0.09859341
         5839.918      0.09813225
          5845.13      0.09755154
         5850.344      0.09697274
         5855.562      0.09647487
         5860.792       0.0959618
         5866.016      0.09537774
         5871.251       0.0948069
         5876.488      0.09428627
         5881.732      0.09373271
         5886.982      0.09311496
         5892.232      0.09253111
         5897.491      0.09199323
         5902.749      0.09140922
         5908.017      0.09078137
          5913.29      0.09019538
         5918.563      0.08963424
         5923.846       0.0890181
         5929.133       0.0883799
         5934.421      0.08778645
         5939.714      0.08719982
         5945.012      0.08652135
         5950.318      0.08584172
         5955.629      0.08527079
         5960.941      0.08467987
         5966.258      0.08400267
         5971.579      0.08334599
         5976.909      0.08274133
         5982.243      0.08209102
         5987.579      0.08137898
         5992.923      0.08071622
         5998.271      0.08009457
         6003.622      0.07936314
         6008.976      0.07857913
         6014.336      0.07785363
         6019.704       0.0771409
         6025.076      0.07634304
          6030.45      0.07554652
         6035.832      0.07482265
         6041.219      0.07407016
         6046.604      0.07322332
         6052.001      0.07242908
         6057.399       0.0717272
         6062.805      0.07096399
         6068.216      0.07014427
         6073.628       0.0694013
         6079.046      0.06869546
         6084.468      0.06789418
         6089.898      0.06707105
         6095.333      0.06636768
          6100.77      0.06564865
         6106.215      0.06482222
         6111.665      0.06403241
         6117.112      0.06332826
         6122.572      0.06257564
         6128.033      0.06177008
         6133.502      0.06104234
         6138.976      0.06035829
         6144.452      0.05956682
         6149.936      0.05874916
         6155.417      0.05806156
         6160.911      0.05735721
          6166.41       0.0565686
          6171.91      0.05581699
         6177.418      0.05513477
         6182.932      0.05440276
         6188.443       0.0536277
         6193.966       0.0529167
         6199.491      0.05223125
         6205.024      0.05146066
         6210.562      0.05069248
         6216.101      0.05002861
         6221.649      0.04933626
         6227.195      0.04857943
         6232.756      0.04787834
         6238.315      0.04723638
         6243.879      0.04652935
         6249.452      0.04579309
         6255.029      0.04514685
         6260.608      0.04449984
         6266.193      0.04376819
         6271.782      0.04307383
         6277.379      0.04245972
         6282.982       0.0417992
         6288.586      0.04109817
         6294.198      0.04046601
         6299.809      0.03985745
         6305.435      0.03918096
         6311.059      0.03851815
         6316.688      0.03792353
         6322.326      0.03730307
         6327.968       0.0366466
         6333.612      0.03605022
         6339.262      0.03548714
         6344.916      0.03484062
         6350.579        0.034192
         6356.247      0.03364331
         6361.916      0.03306795
         6367.594      0.03243965
         6373.277      0.03187056
         6378.961       0.0313452
         6384.651      0.03074847
         6390.346      0.03014048
         6396.049      0.02961256
         6401.757      0.02906517
         6407.467      0.02847512
         6413.183      0.02793292
         6418.906       0.0274285
         6424.631      0.02688119
         6430.365      0.02632791
         6436.104      0.02584772
         6441.845      0.02535322
         6447.594       0.0248279
         6453.345       0.0243381
         6459.101      0.02387355
         6464.866      0.02336312
         6470.632      0.02285386
         6476.407      0.02242211
         6482.184      0.02197368
         6487.969      0.02149718
         6493.756       0.0210544
         6499.548       0.0206296
         6505.349        0.020161
         6511.154      0.01969133
         6516.962      0.01922965
         6522.778      0.01878528
         6528.596      0.01836029
         6534.419      0.01793594
         6540.251      0.01751215
         6546.088      0.01708929
         6551.927      0.01667614
         6557.771      0.01628133
         6563.624      0.01588171
         6569.478      0.01547986
         6575.341      0.01510843
         6581.206       0.0147378
          6587.08      0.01435551
         6592.955      0.01399434
         6598.839       0.0136536
         6604.729      0.01329527
         6610.616      0.01293805
         6616.516      0.01261839
         6622.421      0.01229816
         6628.328      0.01197697
         6634.244      0.01166597
         6640.165       0.0113597
         6646.087      0.01105962
         6652.015      0.01076539
         6657.948      0.01048192
         6663.891      0.01019908
         6669.838      0.00991703
         6675.787     0.009652431
         6681.745     0.009387289
         6687.701     0.009119493
          6693.67     0.008865693
         6699.644     0.008621094
          6705.62     0.008375637
         6711.604     0.008133803
         6717.594     0.007901358
         6723.586     0.007673766
         6729.583     0.007449508
         6735.585     0.007236832
         6741.597     0.007026776
         6747.613      0.00682104
         6753.632     0.006618023
          6759.66     0.006416765
         6765.692     0.006223979
         6771.723     0.006034872
         6777.767     0.005852175
         6783.813     0.005675368
         6789.867     0.005502026
         6795.927     0.005330815
         6801.988     0.005163539
         6808.055     0.005003533
         6814.127     0.004846262
         6820.209     0.004690634
         6826.296     0.004541951
         6832.385     0.004395737
         6838.482     0.004252917
         6844.586     0.004167218
         6850.687     0.004100586
         6856.801     0.004034049
         6862.917     0.003967697
         6869.042     0.003901444
         6875.173     0.003835433
         6881.305     0.003769657
         6887.446     0.003704013
         6893.586     0.003638626
         6899.738     0.003573337
         6905.896      0.00350817
         6912.056     0.003443236
         6918.225     0.003378486
         6924.399     0.003313914
         6930.572     0.003249608
         6936.757     0.003185464
         6942.944     0.003105027
         6949.141     0.003006611
         6955.343     0.002899971
         6961.546      0.00279666
          6967.76     0.002706566
         6973.971     0.002612138
         6980.195     0.002515696
         6986.424     0.002434604
         6992.656     0.002350659
         6998.897     0.002262685
         7005.143     0.002185262
         7011.392     0.002108792
         7017.645     0.002026994
         7023.904     0.001953691
         7030.173     0.001885416
         7036.448      0.00181202
         7042.724     0.001744247
         7049.009     0.001683555
         7055.292     0.001619219
         7061.589     0.001556984
         7067.892     0.001502807
         7074.196     0.001445747
          7080.51     0.001388038
         7086.829     0.001338632
          7093.15     0.001288053
         7099.477     0.001236267
         7105.809     0.001192532
         7112.151     0.001148113
         7118.498     0.001100855
         7124.848     0.001059886
         7131.207     0.001020431
         7137.571     9.789128E-4
         7143.933     9.416217E-4
         7150.309     9.067999E-4
         7156.687     8.698346E-4
         7163.074     8.357764E-4
         7169.467     8.048494E-4
         7175.862     7.719206E-4
         7182.262     7.408514E-4
         7188.668     7.133896E-4
         7195.084     6.842438E-4
         7201.506     6.558939E-4
         7207.929     6.313724E-4
         7214.362     6.060292E-4
         7220.801     5.808263E-4
         7227.237     5.589642E-4
         7233.688     5.364441E-4
         7240.144     5.135572E-4
         7246.601     4.940392E-4
         7253.069     4.741779E-4
         7259.538     4.539579E-4
         7266.017     4.369446E-4
         7272.498     4.196948E-4
         7278.989     4.016137E-4
         7285.481     3.861918E-4
         7291.979     3.708925E-4
         7298.487     3.546906E-4
         7305.001     3.407752E-4
         7311.517     3.273482E-4
         7318.038     3.131515E-4
         7324.569     3.006499E-4
         7331.103     2.887711E-4
         7337.646     2.762246E-4
          7344.19     2.649581E-4
         7350.745     2.543776E-4
         7357.301     2.435370E-4
         7363.867     2.337258E-4
         7370.436     2.245985E-4
         7377.014     2.147708E-4
         7383.593     2.058625E-4
         7390.183     1.976975E-4
         7396.775     1.891635E-4
         7403.372     1.813299E-4
         7409.979     1.741575E-4
         7416.589     1.665288E-4
         7423.208     1.594830E-4
         7429.829     1.530601E-4
          7436.46     1.463266E-4
         7443.097     1.402072E-4
         7449.736     1.347931E-4
         7456.381     1.290070E-4
         7463.036     1.235806E-4
         7469.692     1.186013E-4
         7476.359     1.133797E-4
         7483.027     1.086155E-4
         7489.702     1.044037E-4
         7496.386     9.980489E-5
         7503.077     9.558738E-5
         7509.769     9.183514E-5
         7516.471     8.778252E-5
         7523.175     8.409771E-5
          7529.89     8.082396E-5
         7536.606     7.732205E-5
         7543.328     7.415966E-5
         7550.061     7.133884E-5
         7556.794     6.808695E-5
         7563.539     6.521722E-5
          7570.29     6.268072E-5
         7577.042     5.985175E-5
           7583.8     5.736814E-5
         7590.568     5.514575E-5
         7597.339     5.285725E-5
         7604.119     5.070865E-5
         7610.906     4.864392E-5
         7617.694     4.652287E-5
         7624.489     4.464381E-5
          7631.29     4.285179E-5
           7638.1     4.089317E-5
         7644.917     3.932247E-5
         7651.736     3.784843E-5
         7658.565     3.621169E-5
         7665.396     3.477963E-5
         7672.233     3.337113E-5
         7679.081     3.189541E-5
          7685.93     3.064068E-5
          7692.79     2.936204E-5
         7699.655     2.799924E-5
         7706.523     2.700297E-5
         7713.401     2.594845E-5
         7720.276     2.482626E-5
         7727.167     2.391605E-5
         7734.063     2.295489E-5
         7740.961     2.197400E-5
          7747.87     2.107939E-5
         7754.785     2.023759E-5
         7761.697     1.941820E-5
         7768.625     1.858827E-5
         7775.554     1.782845E-5
         7782.494     1.713764E-5
         7789.439     1.653818E-5
         7796.387     1.587430E-5
         7803.345     1.525233E-5
         7810.301     1.468120E-5
         7817.271     1.408327E-5
         7824.249     1.356330E-5
         7831.227     1.306006E-5
         7838.216     1.239889E-5
         7845.212     1.190894E-5
         7852.209     1.149066E-5
         7859.213     1.109958E-5
         7866.223     1.068403E-5
         7873.244     1.025621E-5
         7880.271     9.820539E-6
         7887.299     9.450856E-6
         7894.338     9.075792E-6
         7901.375     8.717842E-6
         7908.427     8.439744E-6
         7915.485     8.111866E-6
         7922.545     7.752983E-6
         7929.616     7.363361E-6
         7936.693     7.156156E-6
         7943.772     6.922622E-6
         7950.858     6.646936E-6
          7957.95     6.297929E-6
         7965.052     6.087651E-6
         7972.161     5.942215E-6
         7979.271     5.816538E-6
         7986.393     5.578112E-6
         7993.521     5.852333E-6
         8000.646     6.518539E-6
         8007.786     5.774257E-6
         8014.929     5.631709E-6
         8022.082     5.390973E-6
         8029.242     4.266747E-6
         8036.403     4.300671E-6
         8043.576     4.408661E-6
         8050.746     4.497030E-6
         8057.931     4.949204E-6
         8065.123     4.362703E-6
         8072.316     3.680090E-6
         8079.521     3.661010E-6
         8086.731     3.977723E-6
          8093.94     3.880054E-6
         8101.164     3.482561E-6
         8108.389     3.392823E-6
         8115.626     3.276130E-6
         8122.869     3.106765E-6
         8130.114     2.874679E-6
          8137.37     2.960458E-6
         8144.628     2.839023E-6
         8151.893     2.691515E-6
         8159.168     2.797827E-6
         8166.446     2.715607E-6
         8173.734     2.846342E-6
         8181.029     3.138023E-6
         8188.326     3.055054E-6
          8195.63     2.763067E-6
         8202.939     2.628595E-6
         8210.261     2.777542E-6
         8217.588     1.892125E-6
         8224.918     2.182566E-6
         8232.259     2.718658E-6
         8239.602     2.531580E-6
          8246.95     2.139888E-6
         8254.311     1.705579E-6
         8261.673     1.455828E-6
         8269.047     1.899304E-6
         8276.427     1.879488E-6
         8283.809     1.914966E-6
         8291.197     2.019247E-6
         8298.597     1.889664E-6
         8305.999     1.450012E-6
         8313.412     1.127631E-6
         8320.827     1.058002E-6
         8328.253     1.252389E-6
         8335.687     1.671337E-6
         8343.121     1.777829E-6
         8350.563     1.398201E-6
         8358.011     1.418746E-6
         8365.471     1.469138E-6
         8372.937     1.249803E-6
         8380.409     6.492175E-7
         8387.879     9.016305E-7
         8395.365     1.042956E-6
         8402.854     1.168492E-6
         8410.353     1.336608E-6
         8417.859     1.443076E-6
         8425.367     1.145810E-6
         8432.887     8.918502E-7
         8440.408     9.693672E-7
         8447.937     1.147375E-6
         8455.477     1.182815E-6
         8463.019     1.083902E-6
         8470.571     8.945099E-7
         8478.127     1.072364E-6
         8485.693     8.065759E-7
         8493.262     6.481131E-7
         8500.842     8.140799E-7
         8508.425     9.221436E-7
         8516.019     1.087228E-6
         8523.614     9.223815E-7
         8531.221     5.152210E-7
          8538.83     8.135672E-7
         8546.446     8.332311E-7
         8554.074     7.574729E-7
         8561.704     6.562021E-7
         8569.345     6.014174E-7
         8576.993     8.315267E-7
         8584.644     6.696048E-7
         8592.301     3.845823E-7
         8599.969     4.381238E-7
          8607.64     8.102514E-7
         8615.321     1.259785E-6
         8623.006     1.365886E-6
         8630.702     9.086247E-7
         8638.405     6.451248E-7
         8646.105     5.440075E-7
         8653.821     4.855044E-7
          8661.54     4.437179E-7
         8669.271     4.662003E-7
         8677.008     3.084035E-7
         8684.747     4.007684E-7
         8692.493     5.981721E-7
         8700.251     6.638883E-7
         8708.012     7.428571E-7
         8715.783     7.429023E-7
         8723.563     9.661346E-7
         8731.343     1.337635E-6
         8739.136     1.016997E-6
         8746.926     6.004256E-7
         8754.732     4.275785E-7
         8762.546     3.881096E-7
         8770.361     2.904877E-7
         8778.188     3.360710E-7
         8786.019     3.981814E-7
         8793.859     4.021877E-7
         8801.703     3.989476E-7
         8809.554     6.007187E-7
         8817.416     7.584212E-7
         8825.286     5.057589E-7
         8833.157     4.736175E-7
         8841.041     9.191916E-7
         8848.922     4.427136E-7
         8856.819     3.028489E-7
         8864.724     4.148571E-7
         8872.631     5.336942E-7
          8880.55     4.237274E-7
         8888.476     5.984463E-7
         8896.403     4.350115E-7
         8904.338     2.952942E-7
          8912.28     2.473885E-7
         8920.234     2.280916E-7
         8928.195     6.016957E-7
         8936.159     6.340625E-7
         8944.135     6.092586E-7
         8952.117     5.148916E-7
         8960.097     1.324440E-7
         8968.094     3.958598E-7
         8976.093     4.095453E-7
         8984.104     2.995421E-7
         8992.122     2.783919E-7
         9000.143     6.083609E-7
         9008.175     2.230435E-7
         9016.205     3.625878E-7
         9024.252     6.540661E-7
         9032.306     8.333120E-7
         9040.362     7.508408E-7
         9048.431     9.326019E-7
         9056.506     4.819208E-7
         9064.579     3.713596E-7
         9072.669     5.650695E-7
         9080.761     6.314039E-7
         9088.865     7.583831E-7
         9096.978     4.327761E-7
         9105.092     2.639294E-7
         9113.218     1.847638E-7
         9121.341     7.550739E-8
         9129.481     1.544641E-7
          9137.63     1.779312E-7
          9145.78     2.583485E-7
         9153.942     2.692224E-7
         9162.112     2.615267E-7
         9170.284     4.730542E-7
         9178.464     3.975372E-7
         9186.655     4.974373E-7
         9194.849     3.880902E-7
         9203.056     1.951733E-7
         9211.264     2.029644E-7
         9219.485     5.195055E-7
         9227.708     4.973991E-7
         9235.938     2.918148E-7
         9244.182     2.096128E-7
         9252.427     2.679192E-7
         9260.685     2.563879E-7
         9268.949     4.294406E-7
         9277.217     5.340127E-7
         9285.492     4.216932E-7
         9293.779     3.857490E-7
         9302.068     4.211753E-7
          9310.37     7.529729E-8
         9318.675     4.391130E-7
         9326.991     3.544600E-7
         9335.315     3.589056E-7
         9343.637     3.462615E-7
         9351.977     2.853705E-7
         9360.317     5.031113E-7
         9368.672     1.216215E-7
         9377.033     1.718932E-7
         9385.396     2.508172E-7
         9393.768     2.887574E-7
         9402.152     2.749827E-7
         9410.538     1.738762E-7
         9418.937     2.854713E-7
         9427.338     2.597133E-7
         9435.752     1.910737E-7
         9444.173     1.886837E-7
         9452.592     2.990009E-7
         9461.028     4.680160E-7
         9469.472     4.884752E-7
         9477.918     2.313222E-7
         9486.377     1.622500E-7
         9494.838     1.834754E-7
         9503.313     2.195430E-7
         9511.788     2.485685E-7
         9520.272     2.655100E-7
          9528.77     2.059458E-7
         9537.269     3.105004E-7
          9545.78     2.463049E-7
           9554.3     1.595720E-7
         9562.821     1.344998E-7
         9571.351     1.350597E-7
         9579.894     3.157032E-7
         9588.438     3.144282E-7
         9596.995     3.769700E-7
         9605.561     4.000320E-7
         9614.128     3.323362E-7
         9622.704     3.242612E-7
         9631.286     5.070499E-7
         9639.882     2.685020E-7
         9648.485     2.158947E-7
         9657.092     3.436514E-7
         9665.711     3.299710E-7
         9674.332     2.112224E-7
         9682.961     1.705913E-7
         9691.603     2.765072E-7
         9700.252     2.600351E-7
         9708.904     3.049189E-7
         9717.569     2.630971E-7
         9726.237     1.697828E-7
         9734.912     2.200609E-7
         9743.601     3.076516E-7
         9752.291     2.724167E-7
         9760.995     2.250192E-7
         9769.701     2.985446E-7
         9778.421     2.453341E-7
         9787.147     2.794688E-7
         9795.872     2.700015E-7
         9804.614     2.274472E-7
         9813.359     2.482429E-7
         9822.118     3.354177E-7
         9830.884     3.056568E-7
         9839.652     2.318821E-7
         9848.435     2.354964E-7
         9857.219     3.036872E-7
         9866.011     2.670986E-7
         9874.816     1.819729E-7
         9883.624     1.852728E-7
         9892.444     2.490634E-7
         9901.273     1.847397E-7
         9910.104     2.143297E-7
         9918.944     2.930886E-7
         9927.791     2.563930E-7
         9936.651     2.548803E-7
         9945.521     2.417135E-7
         9954.391     1.997498E-7
         9963.275     1.764033E-7
         9972.162     1.891449E-7
         9981.057     1.618555E-7
         9989.964     1.677338E-7
          9998.88     1.903523E-7
          10007.8     2.091930E-7
         10016.72     2.189214E-7
         10025.67     2.225306E-7
          10034.6     2.289049E-7
         10043.56     2.278896E-7
         10052.52     2.162630E-7
         10061.49     2.128528E-7
         10070.47     1.708858E-7
         10079.46     1.643592E-7
         10088.45     2.269625E-7
         10097.44     1.812728E-7
         10106.46     1.950022E-7
         10115.48     1.742083E-7
          10124.5     1.615536E-7
         10133.53     1.849296E-7
         10142.58     1.797054E-7
         10151.62     1.587687E-7
         10160.68     1.724038E-7
         10169.74     1.853805E-7
         10178.81     1.667028E-7
          10187.9     1.763895E-7
         10196.99     1.702999E-7
         10206.08     1.749107E-7
         10215.19     1.840406E-7
         10224.31     1.871777E-7
         10233.43     1.851303E-7
         10242.56     1.770241E-7
         10251.69     1.626823E-7
         10260.85     1.630353E-7
           10270.     1.698136E-7
         10279.16     1.664304E-7
         10288.33     1.615466E-7
         10297.51     1.543304E-7
          10306.7     1.528863E-7
         10315.89     1.501147E-7
          10325.1     1.460776E-7
          10334.3     1.401252E-7
         10343.53     1.338098E-7
         10352.76     1.386527E-7
         10361.99     1.478298E-7
         10371.25     1.168165E-7
          10380.5     1.100744E-7
         10389.76     1.258342E-7
         10399.02     1.293187E-7
          10408.3     1.199728E-7
         10417.59     1.057298E-7
         10426.89     1.090423E-7
         10436.19     1.069179E-7
         10445.49     1.104668E-7
         10454.82     1.046124E-7
         10464.15     9.333413E-8
         10473.48     8.901701E-8
         10482.82     7.878010E-8
         10492.17     6.895998E-8
         10501.54     6.925664E-8
         10510.91     7.574130E-8
         10520.29     7.741178E-8
         10529.67     6.974881E-8
         10539.07     6.583647E-8
         10548.47     7.012311E-8
         10557.88     7.536099E-8
         10567.31     7.293031E-8
         10576.73     7.421905E-8
         10586.17     7.432551E-8
         10595.61     7.075431E-8
         10605.06     6.765915E-8
         10614.53     6.523268E-8
           10624.     6.597578E-8
         10633.48     6.883118E-8
         10642.96     6.559205E-8
         10652.45     6.246328E-8
         10661.97     6.413112E-8
         10671.48     6.602724E-8
         10680.99     6.564824E-8
         10690.53     6.407301E-8
         10700.07     6.090867E-8
         10709.61     5.917479E-8
         10719.16     6.083958E-8
         10728.72     5.958554E-8
         10738.31     5.859160E-8
         10747.88     5.842743E-8
         10757.47     5.563068E-8
         10767.08     5.422155E-8
         10776.67     5.532728E-8
         10786.29     5.232026E-8
         10795.91     5.147004E-8
         10805.54     5.147475E-8
         10815.18     5.100671E-8
         10824.83     4.978597E-8
         10834.49     4.775866E-8
         10844.17     4.649700E-8
         10853.84     4.502818E-8
         10863.52     4.351566E-8
         10873.21     4.213677E-8
         10882.91     4.092741E-8
         10892.63     4.159043E-8
         10902.35     3.959400E-8
         10912.07     3.642078E-8
         10921.81     3.584195E-8
         10931.54     3.467184E-8
         10941.31     3.379407E-8
         10951.07     3.245774E-8
         10960.83     2.930375E-8
         10970.62     2.896360E-8
         10980.39     2.734882E-8
          10990.2     2.593419E-8
           11000.     2.351465E-8
