#  Table pcf555wsys.tab  Mon 12:21:15 02-Jun-97

#      WAVELENGTH      THROUGHPUT
#       angstroms                

            1850.     6.324332E-9
         1851.651     5.930771E-7
         1853.301     1.184992E-6
         1854.956     1.783815E-6
         1856.611     2.387636E-6
         1858.267     2.997321E-6
         1859.925     3.613264E-6
         1861.584     3.742654E-6
         1863.246     3.849939E-6
         1864.909     3.958169E-6
         1866.572     4.067271E-6
         1868.237     4.177325E-6
         1869.904     4.288396E-6
         1871.573     4.290308E-6
         1873.242     4.285360E-6
         1874.913     4.280228E-6
         1876.585     4.274912E-6
          1878.26     4.269404E-6
         1879.937     4.262066E-6
         1881.613     3.794630E-6
         1883.292     3.304950E-6
         1884.973     2.810699E-6
         1886.654     2.312435E-6
         1888.338     1.809530E-6
         1890.023     1.307574E-6
         1891.709     1.185682E-6
         1893.396     1.062699E-6
         1895.086     9.385585E-7
         1896.775     8.134821E-7
         1898.469     6.870761E-7
         1900.163     5.986089E-7
         1901.857     8.757868E-7
         1903.555     1.155701E-6
         1905.254     1.438022E-6
         1906.953     1.722551E-6
         1908.655     2.009666E-6
         1910.357     2.197172E-6
         1912.061     2.000794E-6
         1913.768     1.802544E-6
         1915.476     1.602513E-6
         1917.184     1.400826E-6
         1918.894     1.197348E-6
         1920.606     1.009768E-6
          1922.32     8.528681E-7
         1924.035     6.945834E-7
         1925.752     5.349890E-7
          1927.47     3.739099E-7
         1929.189     2.115134E-7
          1930.91     1.246750E-7
         1932.634     1.059325E-7
         1934.358     8.702434E-8
         1936.084     6.796211E-8
         1937.811     4.873055E-8
          1939.54     2.931947E-8
          1941.27     1.222373E-7
         1943.003     2.569757E-7
         1944.737     3.928830E-7
          1946.47     5.297889E-7
         1948.207     6.680346E-7
         1949.947     8.075392E-7
         1951.685     7.903535E-7
         1953.427     7.679997E-7
         1955.171     7.454309E-7
         1956.913     7.226736E-7
          1958.66     6.996715E-7
         1960.408     6.850465E-7
         1962.157     6.986360E-7
         1963.908     7.123326E-7
         1965.658     7.261110E-7
         1967.413     7.400047E-7
         1969.169     7.539991E-7
         1970.925     7.025409E-7
         1972.684     5.913647E-7
         1974.444     4.792789E-7
         1976.205     3.662112E-7
         1977.969     2.520237E-7
         1979.734     1.369818E-7
           1981.5     1.422219E-7
         1983.268     1.691531E-7
         1985.037     1.962963E-7
         1986.809     2.236822E-7
         1988.581     2.512794E-7
         1990.355     2.891283E-7
         1992.131     3.673836E-7
         1993.908     4.462981E-7
         1995.688     5.259727E-7
         1997.467     6.061633E-7
          1999.25     6.871186E-7
         2001.034     6.487819E-7
         2002.818     5.226941E-7
         2004.606     3.951032E-7
         2006.396     2.663054E-7
         2008.184     1.363944E-7
         2009.976     5.035713E-9
         2011.769     1.242534E-8
         2013.565     2.177635E-8
         2015.362     3.121951E-8
         2017.158     4.074294E-8
         2018.958     5.037039E-8
          2020.76     5.318672E-8
         2022.563     4.652622E-8
         2024.368     3.979475E-8
         2026.173     3.300105E-8
         2027.982     2.613565E-8
         2029.791     1.920698E-8
         2031.602     1.682064E-8
         2033.414     1.501782E-8
         2035.228     1.319715E-8
         2037.044     1.135744E-8
         2038.861     9.500825E-9
         2040.681     3.554441E-8
         2042.502     1.087720E-7
         2044.324     1.826541E-7
         2046.147     2.572280E-7
         2047.974     3.325526E-7
           2049.8     4.085356E-7
          2051.63     3.554114E-7
         2053.461     2.857789E-7
         2055.291     2.155660E-7
         2057.125     1.446105E-7
         2058.961     7.298354E-8
         2060.798     4.101921E-8
         2062.637     6.148046E-8
         2064.477     8.211563E-8
         2066.318     1.029363E-7
         2068.164     1.239713E-7
         2070.007     1.450705E-7
         2071.855     1.437224E-7
         2073.704     1.423586E-7
         2075.553     1.409796E-7
         2077.405     1.395846E-7
         2079.259     1.381723E-7
         2081.113     1.231237E-7
         2082.971     9.880962E-8
         2084.829     7.429416E-8
         2086.688     4.956362E-8
          2088.55     2.459736E-8
         2090.414     4.980556E-9
         2092.279     4.775851E-9
         2094.145     4.569328E-9
         2096.014     4.360757E-9
         2097.885     4.150323E-9
         2099.756     3.938125E-9
          2101.63     7.426893E-9
         2103.503     1.149714E-8
         2105.381     1.560540E-8
          2107.26     1.974815E-8
         2109.139     2.392228E-8
         2111.022     3.059109E-8
         2112.906     3.939332E-8
         2114.789     4.825438E-8
         2116.677     5.719753E-8
         2118.564     6.620578E-8
         2120.455     7.036990E-8
         2122.348     5.898326E-8
         2124.241     4.751605E-8
         2126.135     3.595762E-8
         2128.033     2.430302E-8
         2129.932     1.255630E-8
         2131.832     1.070477E-8
         2133.734     9.208868E-9
         2135.637     7.701896E-9
         2137.544     6.181662E-9
          2139.45     4.653064E-9
         2141.359     5.504232E-9
          2143.27     7.334440E-9
         2145.182     9.177577E-9
         2147.096     1.103559E-8
         2149.011     1.290641E-8
         2150.929     1.382259E-8
         2152.848     1.370918E-8
         2154.768     1.359474E-8
         2156.692     1.347913E-8
         2158.615     1.336270E-8
         2160.541     1.280596E-8
         2162.469     1.111709E-8
         2164.397     9.418683E-9
          2166.33     7.705305E-9
         2168.263     5.980994E-9
         2170.196     5.209923E-9
         2172.133     1.300260E-8
          2174.07     2.083880E-8
         2176.011     2.873058E-8
         2177.953     3.667224E-8
         2179.895     4.465793E-8
          2181.84     4.351150E-8
         2183.787     4.183235E-8
         2185.735     4.014378E-8
         2187.686     3.844406E-8
         2189.637     3.673507E-8
          2191.59     4.430123E-8
         2193.546     5.404211E-8
         2195.503     6.383362E-8
         2197.462     7.367228E-8
         2199.423     8.357054E-8
         2201.385     7.556425E-8
         2203.348     5.985937E-8
         2205.315     4.387726E-8
         2207.283     2.762819E-8
         2209.252     1.112106E-8
         2211.222     6.179273E-9
         2213.196     8.465595E-9
          2215.17     1.078558E-8
         2217.147     1.314285E-8
         2219.125     1.553587E-8
         2221.104     3.374885E-8
         2223.086     6.489050E-8
         2225.071     9.651963E-8
         2227.055     1.285600E-7
         2229.042     1.611120E-7
         2231.031     1.648051E-7
         2233.021     1.410829E-7
         2235.015     1.169732E-7
         2237.008     9.253321E-8
         2239.003     6.772894E-8
         2241.002     7.183204E-8
         2242.999     1.052971E-7
         2245.002     1.392858E-7
         2247.005     1.737014E-7
         2249.009     2.085871E-7
         2251.016     2.051104E-7
         2253.024     1.634374E-7
         2255.033     1.211922E-7
         2257.046     7.834075E-8
         2259.061     3.491104E-8
         2261.075     1.748572E-8
         2263.092     2.319014E-8
         2265.112     2.897119E-8
         2267.134     3.482577E-8
         2269.156     4.074990E-8
         2271.181     3.895816E-8
         2273.207     3.153812E-8
         2275.234     2.402271E-8
         2277.266     1.640230E-8
         2279.296     8.701291E-9
          2281.33     9.352317E-9
         2283.366     1.451582E-8
         2285.402     1.973526E-8
         2287.441     2.502343E-8
         2289.483     3.037373E-8
         2291.525     2.807546E-8
          2293.57     2.311520E-8
         2295.615     1.810162E-8
         2297.663     1.302548E-8
         2299.715     7.883521E-9
         2301.765     8.398216E-9
          2303.82     9.847597E-9
         2305.876     1.131398E-8
         2307.932     1.279656E-8
         2309.992     1.429734E-8
         2312.051     1.461279E-8
         2314.116     1.492720E-8
          2316.18     1.524421E-8
         2318.246     1.556412E-8
         2320.315     1.556249E-8
         2322.385     1.374117E-8
         2324.457     1.189694E-8
         2326.531     1.003209E-8
         2328.606     8.145214E-9
         2330.685     6.976894E-9
         2332.764     7.315195E-9
         2334.845     7.657020E-9
         2336.927     8.002307E-9
         2339.012     8.351111E-9
         2341.101     9.127700E-9
         2343.188     1.029370E-8
         2345.279     1.147222E-8
         2347.372     1.266390E-8
         2349.467     1.386794E-8
         2351.562     1.562928E-8
         2353.661     1.759758E-8
         2355.759     1.958345E-8
         2357.862     2.159230E-8
         2359.966     2.362145E-8
         2362.071     2.248123E-8
         2364.179     2.127461E-8
         2366.288     2.005545E-8
         2368.398     1.882285E-8
         2370.512     1.750036E-8
         2372.628     1.592558E-8
         2374.744     1.433536E-8
         2376.863     1.272761E-8
         2378.983     1.110412E-8
         2381.105     1.925920E-8
          2383.23     3.656414E-8
         2385.357     5.403621E-8
         2387.485     7.166796E-8
         2389.615     8.946795E-8
         2391.747     7.934290E-8
         2393.881     6.289624E-8
         2396.017     4.628106E-8
         2398.154     2.951760E-8
         2400.293     1.646998E-8
         2402.435     2.784269E-8
          2404.58     3.932132E-8
         2406.724     5.089703E-8
         2408.872     6.258471E-8
         2411.022     6.505451E-8
         2413.171     5.721842E-8
         2415.326     4.929572E-8
         2417.479     4.131578E-8
         2419.637     3.325212E-8
         2421.796     3.115174E-8
         2423.957     3.025809E-8
          2426.12     2.935530E-8
         2428.284     2.844443E-8
         2430.451     2.898431E-8
         2432.619     3.510812E-8
         2434.789     4.128268E-8
         2436.962     4.751310E-8
         2439.136     5.379471E-8
         2441.312     7.781976E-8
          2443.49     1.137378E-7
          2445.67     1.499739E-7
         2447.853     1.865131E-7
         2450.036     2.221156E-7
         2452.222     1.863945E-7
         2454.409     1.503759E-7
           2456.6     1.140345E-7
         2458.792     7.739728E-8
         2460.985     6.255598E-8
          2463.18     7.478508E-8
         2465.379     8.711928E-8
         2467.579     9.954933E-8
         2469.778     1.120616E-7
         2471.983     1.176176E-7
          2474.19     1.224238E-7
         2476.396     1.272570E-7
         2478.606     1.321315E-7
         2480.817     1.399303E-7
         2483.029     1.527450E-7
         2485.247     1.656742E-7
         2487.462     1.786767E-7
         2489.682     1.917930E-7
         2491.904     1.615521E-7
         2494.125     1.238363E-7
         2496.353     8.575344E-8
         2498.579     4.741895E-8
         2500.808     2.211025E-8
          2503.04     2.013632E-8
         2505.272     1.814802E-8
         2507.509     1.614246E-8
         2509.745     1.412265E-8
         2511.985     1.627541E-8
         2514.225     1.898359E-8
         2516.468     2.171256E-8
         2518.714     2.446360E-8
         2520.962     3.093130E-8
          2523.21     4.240312E-8
         2525.462     5.396975E-8
         2527.715     6.561648E-8
         2529.971     7.735873E-8
         2532.229     6.361824E-8
         2534.486     4.945002E-8
         2536.748     3.515499E-8
          2539.01     2.072519E-8
         2541.277     1.385918E-8
         2543.545     1.290145E-8
         2545.813     1.194026E-8
         2548.084     1.097511E-8
         2550.358     1.186060E-8
         2552.635     2.269874E-8
         2554.911     3.357151E-8
         2557.191     4.449506E-8
         2559.471     5.544818E-8
         2561.755     5.627386E-8
         2564.042     5.402505E-8
         2566.329     5.176790E-8
         2568.619     4.950004E-8
         2570.908     4.534360E-8
         2573.205     3.828812E-8
           2575.5     3.121398E-8
         2577.797     2.411006E-8
         2580.097     1.734997E-8
         2582.399     1.908203E-8
         2584.704     2.082204E-8
          2587.01     2.256851E-8
         2589.318     2.432086E-8
         2591.629     2.633886E-8
          2593.94     2.847206E-8
         2596.254     3.061319E-8
         2598.573     3.276539E-8
         2600.889     3.203931E-8
          2603.21     2.666275E-8
         2605.532     2.126761E-8
         2607.856     1.585001E-8
         2610.185     1.107087E-8
         2612.512     1.402571E-8
         2614.843     1.699582E-8
         2617.177     1.997804E-8
          2619.51     2.296857E-8
         2621.849     2.728012E-8
         2624.188     3.195042E-8
         2626.528     3.663931E-8
         2628.873     4.135015E-8
         2631.217     4.306311E-8
         2633.566     4.198375E-8
         2635.916     4.089939E-8
         2638.267     3.981061E-8
          2640.62     4.419253E-8
         2642.977     6.393798E-8
         2645.334     8.375321E-8
         2647.695     1.036605E-7
         2650.057     1.225839E-7
         2652.422     9.880380E-8
         2654.788     7.493918E-8
         2657.157     5.095843E-8
         2659.526     2.690655E-8
         2661.899     2.510400E-8
         2664.275     2.889367E-8
         2666.652     3.269649E-8
         2669.031     3.651668E-8
         2671.412     3.615358E-8
         2673.796     3.290097E-8
         2676.181     2.963669E-8
          2678.57     2.635642E-8
          2680.96     2.312602E-8
          2683.35     1.998097E-8
         2685.746     1.681704E-8
          2688.14     1.364557E-8
          2690.54     1.728844E-8
         2692.941     4.454854E-8
         2695.343     7.190671E-8
         2697.748     9.939024E-8
         2700.153     1.248178E-7
         2702.563     1.188701E-7
         2704.975     1.128780E-7
         2707.387     1.068443E-7
         2709.804     1.007609E-7
         2712.222     1.025303E-7
         2714.642     1.050084E-7
         2717.063     1.075021E-7
         2719.486     1.100118E-7
         2721.915     9.523858E-8
         2724.343     7.572107E-8
         2726.772     5.606244E-8
         2729.205     3.626238E-8
          2731.64     2.688219E-8
         2734.078     2.258231E-8
         2736.517     1.825398E-8
         2738.958     1.389501E-8
         2741.402     1.261383E-8
         2743.849     1.364549E-8
         2746.296     1.468348E-8
         2748.747     1.572919E-8
         2751.198     1.575984E-8
         2753.653     1.472102E-8
         2756.111     1.367969E-8
         2758.569     1.263649E-8
         2761.031     1.363555E-8
         2763.495     1.748060E-8
         2765.958     2.133015E-8
         2768.427     2.519338E-8
         2770.898     2.651671E-8
         2773.369     2.337214E-8
         2775.844     2.021828E-8
          2778.32     1.705884E-8
         2780.799     2.714984E-8
          2783.28     6.521383E-8
         2785.764     1.033696E-7
         2788.249     1.415873E-7
         2790.736     1.575833E-7
         2793.227     1.204317E-7
          2795.72     8.319563E-8
         2798.213     4.589697E-8
         2800.709     1.899572E-8
         2803.209     1.848002E-8
         2805.709     1.796344E-8
         2808.213     1.744535E-8
         2810.718     1.675180E-8
         2813.226     1.562051E-8
         2815.736     1.448740E-8
         2818.247     1.335180E-8
         2820.764     1.453831E-8
         2823.278     2.106076E-8
         2825.798     2.760537E-8
          2828.32     3.416394E-8
         2830.843     4.437593E-8
         2833.369     6.189268E-8
         2835.898     7.944800E-8
         2838.426     9.701819E-8
         2840.959     1.114010E-7
         2843.495     1.204742E-7
         2846.031     1.295608E-7
         2848.571     1.386729E-7
         2851.112     1.296825E-7
         2853.655     9.734798E-8
         2856.202     6.492919E-8
         2858.751     3.244471E-8
         2861.301     4.431707E-8
         2863.853     9.892708E-8
         2866.407     1.536509E-7
         2868.965     2.085203E-7
         2871.526     2.136421E-7
         2874.087     1.849394E-7
         2876.652     1.561591E-7
         2879.218     1.273420E-7
         2881.788     1.036524E-7
         2884.358     8.221240E-8
         2886.931     6.072904E-8
         2889.507     3.919205E-8
         2892.084     3.105932E-8
         2894.666     2.608984E-8
         2897.248     2.111337E-8
         2899.832     1.612800E-8
         2902.421     1.497396E-8
          2905.01     1.409002E-8
         2907.601     1.320746E-8
         2910.198     1.259180E-8
          2912.79     1.520287E-8
         2915.392     1.781572E-8
         2917.992     2.042050E-8
         2920.594     2.219379E-8
         2923.203     2.117169E-8
         2925.807     2.015378E-8
          2928.42     1.913521E-8
         2931.033     1.786420E-8
         2933.646     1.620781E-8
         2936.266     1.455150E-8
         2938.885     1.290036E-8
         2941.506     1.274434E-8
         2944.131     1.369337E-8
         2946.757     1.463989E-8
         2949.387     1.558504E-8
         2952.018     5.013058E-8
         2954.653     9.482605E-8
          2957.29     1.394317E-7
         2959.926     1.838933E-7
         2962.567     1.532118E-7
          2965.21     1.204399E-7
         2967.856     8.771881E-8
         2970.505     5.885242E-8
         2973.155     4.613559E-8
         2975.808     3.343691E-8
         2978.461     2.078105E-8
         2981.121     1.788805E-8
          2983.78     2.838522E-8
         2986.441     3.885953E-8
         2989.104     4.930989E-8
         2991.772     4.550984E-8
         2994.442     3.453254E-8
         2997.113     2.358529E-8
         2999.788     1.265522E-8
         3002.464     1.332976E-8
         3005.142     1.499617E-8
         3007.826     1.666080E-8
         3010.507     2.139278E-8
         3013.194     3.931502E-8
         3015.883     5.719556E-8
         3018.573     7.502281E-8
         3021.267     7.633128E-8
          3023.96     5.909613E-8
          3026.66     4.187038E-8
          3029.36     2.470569E-8
         3032.062     2.060575E-8
          3034.77     2.055351E-8
         3037.475     2.050133E-8
         3040.186     2.028394E-8
         3042.897     1.782918E-8
         3045.612     1.538016E-8
         3048.332     1.293406E-8
         3051.051     1.146123E-8
         3053.772     1.152205E-8
         3056.497     1.158266E-8
         3059.222     1.164295E-8
         3061.954     1.478231E-8
         3064.685     1.913314E-8
         3067.418     2.347289E-8
         3070.156     2.757311E-8
         3072.896     2.785461E-8
         3075.637     2.813499E-8
          3078.38     2.841439E-8
         3081.126     2.698515E-8
         3083.877     2.310057E-8
         3086.628     1.923082E-8
         3089.381     1.537180E-8
         3092.137     1.591257E-8
         3094.895     1.772199E-8
         3097.659     1.952848E-8
         3100.422     2.406776E-8
         3103.187     4.387208E-8
         3105.955     6.375312E-8
         3108.729     8.373574E-8
         3111.501     1.082420E-7
         3114.277     1.366412E-7
         3117.056     1.651678E-7
         3119.836     1.937843E-7
         3122.621     1.893484E-7
         3125.406     1.828188E-7
         3128.195     1.762598E-7
         3130.985     1.562477E-7
         3133.778     1.114966E-7
         3136.575     6.654471E-8
         3139.373     2.144660E-8
         3142.175     1.132681E-8
         3144.979     1.134382E-8
         3147.784     1.136085E-8
         3150.592     1.256075E-8
         3153.405     1.821422E-8
         3156.218     2.388207E-8
         3159.035     2.957567E-8
         3161.851     2.957409E-8
         3164.674     2.658109E-8
         3167.497     2.358007E-8
         3170.322     2.117412E-8
         3173.152     2.348366E-8
         3175.982     2.580078E-8
         3178.816     2.812812E-8
         3181.652     3.454540E-8
          3184.49     4.391849E-8
         3187.333     5.334057E-8
         3190.175     6.301911E-8
         3193.022     7.639783E-8
          3195.87     8.982083E-8
         3198.722     1.033032E-7
         3201.577     1.423490E-7
         3204.433     2.022358E-7
         3207.291     2.623519E-7
         3210.151     3.159852E-7
         3213.018     2.492996E-7
         3215.884     1.824409E-7
         3218.752     1.153176E-7
         3221.623     7.737183E-8
         3224.499     6.194571E-8
         3227.376     4.645868E-8
         3230.255     3.992492E-8
         3233.136     1.261703E-7
          3236.02     2.127543E-7
         3238.908     2.997294E-7
         3241.799     3.062226E-7
          3244.69     2.635987E-7
         3247.584     2.208018E-7
         3250.485     1.860233E-7
         3253.384     1.922473E-7
         3256.286     1.984951E-7
         3259.192     2.047705E-7
         3262.097     1.727804E-7
          3265.01     1.257848E-7
         3267.922     7.866711E-8
         3270.837     4.392696E-8
         3273.758     4.029992E-8
         3276.675     3.666783E-8
         3279.601     3.301210E-8
         3282.526     1.018878E-7
         3285.454     1.825327E-7
         3288.388     2.635891E-7
         3291.319     2.765787E-7
         3294.257     2.059440E-7
         3297.195     1.350761E-7
         3300.137     6.695183E-8
         3303.083     6.128183E-8
         3306.029     5.559244E-8
         3308.979     4.987748E-8
         3311.931     5.118648E-8
         3314.885     5.623210E-8
         3317.844     6.130043E-8
         3320.803     7.731568E-8
         3323.767     1.228420E-7
         3326.731     1.685220E-7
           3329.7     2.144127E-7
          3332.67     1.684626E-7
         3335.643     1.119788E-7
         3338.622     5.520409E-8
         3341.599     9.012462E-8
          3344.58     2.045499E-7
         3347.563     3.194216E-7
         3350.551     3.999070E-7
         3353.541     3.258879E-7
         3356.532     2.516144E-7
         3359.528     1.770008E-7
         3362.524     1.950576E-7
         3365.525     2.306298E-7
         3368.527     2.663230E-7
         3371.532     3.509962E-7
         3374.541     4.831667E-7
         3377.551     6.157916E-7
         3380.565     7.152393E-7
         3383.582     6.683255E-7
         3386.598     6.212775E-7
         3389.623     5.739498E-7
         3392.646     5.674170E-7
         3395.672     5.667042E-7
         3398.705     5.659853E-7
         3401.732     5.820976E-7
          3404.77     6.109616E-7
         3407.807     6.399055E-7
         3410.847     6.583618E-7
         3413.893     6.493527E-7
         3416.938     6.403158E-7
         3419.985     6.312387E-7
         3423.038     7.063701E-7
         3426.089     7.821219E-7
         3429.148     8.583199E-7
         3432.207     9.386042E-7
         3435.268     1.020711E-6
         3438.334     1.103204E-6
         3441.401     1.112151E-6
         3444.473     1.033080E-6
         3447.545     9.537367E-7
         3450.622     8.952380E-7
         3453.701     9.205730E-7
         3456.782     9.459913E-7
         3459.865     9.715130E-7
         3462.951     9.100581E-7
         3466.042     8.443148E-7
         3469.135     7.782952E-7
         3472.229     8.794402E-7
         3475.326     1.046137E-6
         3478.426     1.213525E-6
         3481.532     1.286349E-6
         3484.638     1.261226E-6
         3487.746     1.235994E-6
         3490.859     1.203292E-6
         3493.972     1.151157E-6
         3497.091     1.098769E-6
          3500.21     1.052474E-6
         3503.334     1.093436E-6
          3506.46     1.134571E-6
         3509.586     1.175826E-6
          3512.72     1.205514E-6
         3515.852     1.233475E-6
         3518.989     1.261582E-6
          3522.13     1.220652E-6
         3525.271     1.146683E-6
         3528.418     1.072346E-6
         3531.563     1.085939E-6
         3534.717     1.189262E-6
          3537.87     1.292905E-6
         3541.025     1.368878E-6
         3544.188     1.386628E-6
         3547.349     1.404425E-6
         3550.513     1.429033E-6
         3553.679     1.488680E-6
         3556.849     1.548583E-6
         3560.026     1.608217E-6
         3563.201     1.594150E-6
         3566.379     1.580014E-6
         3569.562     1.565797E-6
         3572.746     1.486512E-6
         3575.935     1.396414E-6
         3579.124     1.305972E-6
         3582.316     1.309819E-6
         3585.513     1.349606E-6
         3588.714     1.389569E-6
         3591.915     1.510179E-6
         3595.118     1.685544E-6
         3598.325     1.861698E-6
         3601.538     1.963707E-6
         3604.751     1.984114E-6
         3607.966     2.004602E-6
         3611.184     2.001098E-6
         3614.409     1.956035E-6
         3617.633     1.910818E-6
         3620.859     1.905929E-6
         3624.089     2.012982E-6
         3627.322     2.120500E-6
         3630.561     2.213014E-6
         3633.799     2.231143E-6
          3637.04     2.249344E-6
         3640.286     2.269948E-6
         3643.533     2.314700E-6
         3646.785     2.359668E-6
         3650.038     2.404862E-6
         3653.295     2.455602E-6
         3656.556     2.506565E-6
         3659.815     2.557678E-6
         3663.082     2.540083E-6
         3666.353     2.518234E-6
         3669.621     2.496313E-6
         3672.896     2.542898E-6
         3676.172     2.598658E-6
         3679.451     2.654656E-6
         3682.737     2.732533E-6
         3686.022     2.814993E-6
         3689.309     2.897807E-6
           3692.6     2.935177E-6
         3695.896     2.960511E-6
         3699.194     2.985949E-6
         3702.494     2.993537E-6
         3705.798     2.995334E-6
         3709.101     2.997122E-6
         3712.412     3.022911E-6
         3715.725     3.057773E-6
         3719.039     3.092758E-6
         3722.358     3.092451E-6
         3725.678     3.077656E-6
         3729.004     3.062770E-6
          3732.33     3.119160E-6
         3735.659     3.206397E-6
         3738.995     3.294125E-6
          3742.33     3.311530E-6
         3745.668     3.298459E-6
         3749.009     3.285312E-6
         3752.354     3.285637E-6
         3755.703     3.291671E-6
         3759.053     3.297711E-6
         3762.408     3.370436E-6
         3765.764     3.469699E-6
         3769.125     3.569453E-6
         3772.487     3.608224E-6
         3775.852     3.625507E-6
         3779.222     3.642864E-6
         3782.594     3.674519E-6
         3785.968     3.710562E-6
         3789.345     3.746753E-6
         3792.725     3.786100E-6
         3796.112     3.826381E-6
         3799.498     3.866779E-6
         3802.887     3.838759E-6
         3806.279     3.798638E-6
         3809.676     3.758287E-6
         3813.076     3.819920E-6
         3816.477     3.892568E-6
         3819.881     3.965523E-6
          3823.29     3.997735E-6
           3826.7     4.028565E-6
         3830.116     4.059636E-6
         3833.532     4.093719E-6
         3836.951     4.127935E-6
         3840.378     4.164548E-6
         3843.803     4.219211E-6
         3847.232     4.274100E-6
         3850.663     4.327676E-6
         3854.102     4.375105E-6
          3857.54     4.422670E-6
          3860.98     4.452058E-6
         3864.426     4.435316E-6
         3867.875     4.418478E-6
         3871.325     4.418575E-6
         3874.778     4.446029E-6
         3878.234     4.473584E-6
         3881.695     4.462838E-6
         3885.157     4.411932E-6
         3888.625     4.360746E-6
         3892.094     4.430732E-6
         3895.565     4.580942E-6
         3899.044     4.731992E-6
         3902.521     4.719118E-6
         3906.002     4.643669E-6
         3909.489     4.567823E-6
         3912.975     4.616008E-6
         3916.468     4.685862E-6
         3919.961     4.755957E-6
         3923.457     4.734107E-6
         3926.961     4.711068E-6
         3930.462     4.707996E-6
         3933.969     4.837335E-6
         3937.478     4.967137E-6
         3940.992     5.040842E-6
          3944.51     4.970339E-6
         3948.028     4.899554E-6
          3951.55     4.863236E-6
         3955.074     4.871133E-6
         3958.606     4.879054E-6
         3962.137     4.884186E-6
         3965.671     4.887491E-6
          3969.21     4.890794E-6
          3972.75     4.901721E-6
         3976.296     4.914881E-6
         3979.843     4.928070E-6
         3983.395     4.950334E-6
          3986.95     4.973093E-6
         3990.504     4.999216E-6
         3994.065     5.045606E-6
          3997.63     5.092173E-6
         4001.196     5.142288E-6
         4004.767     5.199264E-6
         4008.339     5.256238E-6
         4011.914     5.293269E-6
         4015.494     5.312980E-6
         4019.078     5.332698E-6
         4022.663     5.260661E-6
         4026.251     5.156789E-6
         4029.844     5.052800E-6
         4033.441     5.014466E-6
         4037.039     4.979105E-6
         4040.639     4.955426E-6
         4044.243     4.985975E-6
         4047.855     5.016574E-6
         4051.465     5.027523E-6
         4055.079     5.009731E-6
         4058.698     4.991917E-6
         4062.316     4.984210E-6
         4065.944     4.982170E-6
          4069.57     4.980128E-6
           4073.2     4.991838E-6
         4076.838     5.005410E-6
         4080.472     5.009004E-6
         4084.114     4.945762E-6
         4087.756     4.882530E-6
         4091.405     4.841183E-6
         4095.056     4.834893E-6
         4098.708     4.828604E-6
         4102.367     4.856528E-6
         4106.026     4.903116E-6
         4109.688     4.949707E-6
         4113.356     4.965741E-6
         4117.025     4.978921E-6
         4120.699     4.990718E-6
         4124.375     4.996584E-6
         4128.056     5.002454E-6
         4131.738     4.997542E-6
         4135.423     4.980563E-6
         4139.116     4.963554E-6
         4142.808     4.918062E-6
         4146.503     4.863571E-6
         4150.201     4.812339E-6
         4153.903     4.817905E-6
         4157.613     4.823475E-6
         4161.321     4.850872E-6
         4165.033     4.917735E-6
         4168.748     4.984604E-6
         4172.466     4.925594E-6
         4176.192     4.802461E-6
         4179.917     4.679455E-6
         4183.645     4.730078E-6
         4187.379     4.784693E-6
         4191.116     4.808577E-6
         4194.854     4.760290E-6
         4198.596     4.711995E-6
         4202.343     4.713993E-6
         4206.094     4.746219E-6
         4209.845     4.778506E-6
         4213.603     4.713735E-6
         4217.358     4.644689E-6
         4221.123     4.601100E-6
          4224.89     4.618073E-6
         4228.658     4.635078E-6
         4232.432     4.672776E-6
         4236.208     4.721955E-6
         4239.988     4.771285E-6
          4243.77     4.676434E-6
         4247.555     4.580873E-6
         4251.348     4.502256E-6
          4255.14     4.454942E-6
         4258.936     4.407495E-6
         4262.734     4.347102E-6
         4266.537     4.281547E-6
         4270.347     4.210697E-6
         4274.155     4.089359E-6
         4277.968     3.967681E-6
         4281.786     3.872826E-6
         4285.605     3.808780E-6
          4289.43     3.744527E-6
         4293.256     3.685846E-6
         4297.085     3.628016E-6
         4300.922     3.584129E-6
         4304.759     3.584994E-6
         4308.598     3.585857E-6
         4312.441     3.736580E-6
          4316.29     3.974011E-6
         4320.142     4.234440E-6
         4323.996     5.080696E-6
         4327.854     5.929563E-6
         4331.715     7.894726E-6
         4335.581     1.126394E-5
         4339.448     1.463927E-5
         4343.318     2.199400E-5
         4347.195     3.003443E-5
         4351.072     4.281968E-5
         4354.956     6.804695E-5
          4358.84     9.332199E-5
         4362.728     1.383209E-4
         4366.624     1.918849E-4
         4370.519     2.565909E-4
         4374.417     3.937340E-4
         4378.318     5.312049E-4
         4382.229     7.139735E-4
         4386.137     9.307651E-4
         4390.049     0.001152241
         4393.967     0.001699367
         4397.889     0.002247922
         4401.812     0.002922133
         4405.738     0.003743685
         4409.667     0.004567295
         4413.603     0.005636784
         4417.542     0.006731417
         4421.482     0.007990737
         4425.426      0.00952311
         4429.373      0.01105908
         4433.329       0.0126785
         4437.283      0.01431471
         4441.241      0.01602801
         4445.205      0.01790771
         4449.169      0.01979088
          4453.14      0.02154897
         4457.112      0.02327583
         4461.088      0.02501583
         4465.069      0.02678489
         4469.052      0.02855717
         4473.041      0.03011142
          4477.03       0.0315987
         4481.028      0.03306653
         4485.022      0.03446348
         4489.025      0.03586568
         4493.032       0.0370313
         4497.039      0.03812177
         4501.053       0.0392339
         4505.067      0.04040343
         4509.086      0.04158222
         4513.107      0.04254994
         4517.136      0.04346062
         4521.167      0.04435899
           4525.2      0.04521688
         4529.238      0.04608149
         4533.281      0.04681956
         4537.324      0.04753128
         4541.371       0.0482258
         4545.422       0.0488819
         4549.479      0.04954264
         4553.539      0.05011772
           4557.6      0.05068271
         4561.668       0.0512303
         4565.734      0.05174976
         4569.809      0.05227293
         4573.887      0.05274957
         4577.967      0.05322615
         4582.053      0.05368317
         4586.142      0.05412035
         4590.233      0.05455697
         4594.327      0.05495322
         4598.425      0.05535128
         4602.529      0.05573659
         4606.637      0.05611435
         4610.746      0.05649105
          4614.86      0.05685847
         4618.979       0.0572275
         4623.097      0.05758877
         4627.223      0.05794904
          4631.35      0.05830174
         4635.483      0.05863788
         4639.621      0.05897526
         4643.759      0.05930598
           4647.9      0.05963711
         4652.046      0.05995688
         4656.198      0.06026492
         4660.354      0.06057436
         4664.511      0.06088919
         4668.673      0.06120518
          4672.84      0.06151485
         4677.005      0.06182163
          4681.18      0.06213059
         4685.355      0.06244235
         4689.537      0.06275532
         4693.722      0.06306326
         4697.909      0.06337117
         4702.102      0.06367911
         4706.293      0.06398646
         4710.493      0.06429323
         4714.697      0.06458689
         4718.902      0.06488111
         4723.114      0.06518143
          4727.33      0.06548436
         4731.543      0.06577957
         4735.766      0.06606171
          4739.99      0.06634438
         4744.221      0.06664424
         4748.455      0.06694492
          4752.69      0.06724568
         4756.932      0.06754713
         4761.172      0.06784658
         4765.421      0.06814092
         4769.674      0.06843598
         4773.929      0.06873164
         4778.189      0.06902823
         4782.454      0.06932501
         4786.719        0.069622
         4790.989      0.06991613
         4795.262      0.07019907
         4799.542      0.07048284
         4803.826      0.07078785
          4808.11      0.07109594
         4812.401      0.07139332
         4816.696      0.07168216
         4820.993      0.07197483
         4825.292      0.07227921
         4829.597      0.07258443
         4833.907      0.07288431
         4838.221      0.07318433
         4842.537      0.07348689
         4846.855      0.07379159
         4851.179      0.07409208
         4855.508      0.07438003
         4859.842      0.07466858
         4864.177      0.07496198
         4868.518      0.07525639
         4872.863      0.07554901
         4877.209      0.07584088
          4881.56      0.07613214
         4885.914      0.07642172
         4890.277       0.0767127
         4894.639      0.07701063
         4899.004      0.07730924
         4903.376      0.07760383
         4907.748      0.07789729
          4912.13      0.07818961
         4916.512      0.07847974
         4920.897      0.07877121
         4925.289      0.07906637
         4929.685      0.07936219
         4934.082      0.07965838
         4938.482      0.07995517
         4942.887      0.08024094
         4947.301      0.08052147
         4951.714      0.08081096
         4956.131      0.08111501
         4960.554      0.08141831
         4964.976       0.0817108
          4969.41      0.08200444
         4973.842      0.08229254
         4978.278      0.08258026
         4982.724      0.08286405
         4987.168      0.08314495
         4991.617      0.08343059
         4996.069      0.08372425
         5000.528      0.08402299
         5004.991      0.08435449
         5009.455      0.08468635
         5013.923      0.08501874
         5018.398      0.08535185
         5022.874      0.08569387
         5027.357      0.08604149
         5031.841      0.08638067
         5036.329      0.08670764
         5040.827      0.08703647
         5045.323      0.08736966
         5049.823      0.08770344
         5054.327      0.08804453
         5058.838      0.08838672
         5063.353      0.08873671
         5067.869      0.08908959
          5072.39      0.08943191
         5076.919      0.08976505
         5081.448      0.09009101
          5085.98      0.09040183
         5090.516      0.09071608
          5095.06      0.09105517
         5099.607      0.09139483
         5104.155      0.09172269
         5108.708      0.09204987
         5113.265      0.09236794
         5117.828      0.09268278
         5122.396      0.09300032
         5126.965      0.09332006
         5131.538      0.09363823
          5136.12      0.09395327
         5140.701      0.09427126
         5145.287      0.09460616
         5149.876      0.09494151
         5154.472      0.09525512
         5159.072       0.0955684
         5163.674      0.09588174
         5168.283      0.09619558
         5172.895      0.09650087
         5177.506       0.0968008
         5182.127      0.09710059
         5186.749      0.09739964
         5191.378      0.09769807
         5196.012      0.09799419
         5200.646      0.09829076
         5205.285      0.09859055
         5209.928      0.09889053
         5214.577      0.09919211
         5219.231      0.09949391
         5223.887      0.09979051
         5228.549       0.1000864
         5233.215        0.100379
          5237.88       0.1006698
         5242.555       0.1009583
         5247.231       0.1012444
         5251.914       0.1015231
         5256.601       0.1017907
          5261.29       0.1020545
         5265.985       0.1023088
          5270.68       0.1025673
         5275.383       0.1028536
         5280.092       0.1031393
         5284.801       0.1033893
         5289.518       0.1036393
         5294.239        0.103897
         5298.958       0.1041552
         5303.687       0.1044013
         5308.418       0.1046436
         5313.155       0.1048867
         5317.897       0.1051301
         5322.641       0.1053713
         5327.391       0.1056112
          5332.14       0.1058414
         5336.899       0.1060604
         5341.662       0.1062829
         5346.426        0.106512
         5351.198       0.1067321
         5355.974        0.106926
         5360.751       0.1071253
         5365.532       0.1073567
         5370.318       0.1075848
         5375.111       0.1077694
         5379.908       0.1079534
         5384.707       0.1081382
         5389.513       0.1083225
         5394.323       0.1085047
         5399.131       0.1086858
          5403.95       0.1088712
          5408.77       0.1090569
         5413.597       0.1092163
         5418.429       0.1093661
         5423.262       0.1095296
         5428.099       0.1096993
          5432.94       0.1098505
         5437.792       0.1099896
         5442.643       0.1101243
         5447.497       0.1102554
         5452.359       0.1103877
         5457.225       0.1105212
         5462.092       0.1106512
         5466.964       0.1107769
          5471.84       0.1108896
         5476.724       0.1109813
         5481.612       0.1110778
         5486.501       0.1111854
         5491.398       0.1112833
         5496.293        0.111358
         5501.198       0.1114275
         5506.108       0.1114836
         5511.019       0.1115318
         5515.938       0.1115539
          5520.86       0.1115779
         5525.785       0.1116159
         5530.713       0.1116459
         5535.646       0.1116352
         5540.587       0.1116279
         5545.532       0.1116568
         5550.478       0.1116795
         5555.432       0.1116559
         5560.387       0.1116305
         5565.347       0.1116018
         5570.313       0.1115689
         5575.282       0.1114978
         5580.258       0.1114274
         5585.238       0.1114029
          5590.22        0.111374
         5595.206       0.1112804
         5600.197       0.1111816
         5605.198       0.1110011
         5610.197       0.1108171
         5615.201        0.110568
         5620.213       0.1103198
         5625.226       0.1101262
         5630.246        0.109928
         5635.268       0.1096647
         5640.294       0.1094016
         5645.328       0.1091622
         5650.367       0.1089184
         5655.406       0.1086357
         5660.451       0.1083544
         5665.502       0.1081024
         5670.559       0.1078412
         5675.617       0.1075165
         5680.679       0.1072038
         5685.752       0.1069784
         5690.823       0.1067464
         5695.899        0.106484
         5700.979       0.1062122
         5706.064       0.1059055
          5711.16       0.1055873
         5716.254       0.1052355
         5721.353       0.1048838
         5726.456       0.1045354
         5731.567       0.1041744
         5736.682       0.1037872
         5741.799       0.1033954
          5746.92        0.102996
         5752.053       0.1026147
         5757.183       0.1022626
         5762.318       0.1018801
         5767.458       0.1014606
         5772.602       0.1010418
         5777.757       0.1006234
         5782.911       0.1001801
         5788.068      0.09971677
         5793.237       0.0992858
         5798.401      0.09887466
         5803.577      0.09839715
         5808.753      0.09788925
         5813.937      0.09742722
         5819.126      0.09697847
         5824.316      0.09647466
         5829.511      0.09595787
         5834.711       0.0954971
         5839.918      0.09504011
          5845.13       0.0944884
         5850.344      0.09393702
         5855.562      0.09343686
         5860.792      0.09292857
         5866.016      0.09238889
         5871.251      0.09184979
         5876.488      0.09131994
         5881.732      0.09077273
         5886.982      0.09019308
         5892.232      0.08963056
         5897.491       0.0890912
         5902.749      0.08853445
         5908.017      0.08796027
          5913.29      0.08738452
         5918.563       0.0868073
         5923.846      0.08622067
         5929.133      0.08562919
         5934.421       0.0850622
         5939.714      0.08449814
         5945.012      0.08384468
         5950.318      0.08318919
         5955.629      0.08262513
         5960.941      0.08204292
         5966.258      0.08138303
         5971.579      0.08074772
         5976.909      0.08017401
         5982.243      0.07955264
         5987.579      0.07886667
         5992.923      0.07822872
         5998.271       0.0776308
         6003.622      0.07692099
         6008.976      0.07615757
         6014.336      0.07545112
         6019.704      0.07475711
         6025.076       0.0739802
          6030.45      0.07320523
         6035.832      0.07250825
         6041.219        0.071787
         6046.604      0.07098612
         6052.001       0.0702277
         6057.399      0.06954424
         6062.805      0.06880522
         6068.216      0.06801498
         6073.628      0.06729948
         6079.046      0.06662013
         6084.468      0.06584131
         6089.898       0.0650398
         6095.333       0.0643549
          6100.77      0.06365591
         6106.215       0.0628592
         6111.665      0.06209571
         6117.112      0.06141004
         6122.572      0.06068479
         6128.033      0.05991649
         6133.502       0.0592085
         6138.976      0.05853437
         6144.452      0.05776874
         6149.936      0.05698066
         6155.417      0.05631122
         6160.911      0.05562672
          6166.41      0.05486694
          6171.91       0.0541432
         6177.418      0.05348704
         6182.932      0.05277377
         6188.443      0.05201096
         6193.966      0.05132806
         6199.491      0.05067693
         6205.024      0.04993552
         6210.562      0.04919406
         6216.101      0.04853948
         6221.649      0.04786444
         6227.195      0.04714389
         6232.756      0.04646138
         6238.315      0.04581988
         6243.879       0.0451322
         6249.452      0.04442354
         6255.029      0.04379511
         6260.608      0.04316602
         6266.193      0.04246187
         6271.782      0.04179141
         6277.379      0.04119345
         6282.982       0.0405503
         6288.586      0.03986771
         6294.198      0.03925839
         6299.809      0.03867415
         6305.435      0.03801575
         6311.059      0.03737195
         6316.688      0.03680131
         6322.326      0.03619864
         6327.968      0.03555109
         6333.612       0.0349674
         6339.262      0.03441913
         6344.916      0.03379691
         6350.579      0.03317289
         6356.247      0.03263864
         6361.916      0.03207842
         6367.594      0.03146667
         6373.277      0.03090284
         6378.961      0.03037446
         6384.651      0.02980414
         6390.346      0.02922801
         6396.049      0.02871399
         6401.757      0.02817841
         6407.467      0.02759543
         6413.183      0.02706847
         6418.906      0.02658581
         6424.631      0.02605454
         6430.365      0.02551583
         6436.104      0.02504828
         6441.845      0.02456408
         6447.594      0.02404408
         6453.345      0.02356857
         6459.101      0.02312478
         6464.866      0.02264357
         6470.632      0.02216203
         6476.407      0.02173308
         6482.184      0.02128789
         6487.969      0.02081537
         6493.756      0.02038682
         6499.548      0.01998181
         6505.349      0.01952636
         6511.154      0.01907264
         6516.962      0.01864041
         6522.778      0.01820864
         6528.596      0.01777785
         6534.419       0.0173737
         6540.251      0.01697684
         6546.088      0.01654814
         6551.927      0.01614022
         6557.771      0.01577302
         6563.624      0.01538527
         6569.478      0.01498562
         6575.341      0.01463112
         6581.206      0.01427539
          6587.08      0.01389478
         6592.955      0.01354246
         6598.839      0.01321762
         6604.729      0.01286884
         6610.616      0.01252053
         6616.516      0.01221789
         6622.421      0.01190356
         6628.328      0.01157237
         6634.244      0.01127659
         6640.165      0.01099446
         6646.087      0.01068555
         6652.015      0.01039326
         6657.948      0.01013255
         6663.891     0.009855908
         6669.838     0.009571332
         6675.787     0.009326637
         6681.745     0.009073674
         6687.701     0.008797986
          6693.67     0.008554479
         6699.644     0.008331519
          6705.62     0.008082542
         6711.604     0.007842236
         6717.594     0.007629399
         6723.586     0.007404297
         6729.583     0.007171094
         6735.585     0.006975508
         6741.597     0.006779113
         6747.613     0.006572272
         6753.632     0.006375103
          6759.66     0.006184245
         6765.692     0.005990689
         6771.723     0.005804335
         6777.767     0.005634845
         6783.813     0.005463779
         6789.867     0.005291823
         6795.927     0.005126785
         6801.988      0.00496568
         6808.055     0.004811649
         6814.127     0.004661392
         6820.209     0.004513198
         6826.296     0.004370172
         6832.385     0.004227624
         6838.482     0.004085395
         6844.586     0.003953379
         6850.687      0.00383161
         6856.801     0.003761024
         6862.917     0.003690641
         6869.042     0.003620372
         6875.173     0.003550353
         6881.305     0.003480585
         6887.446      0.00341096
         6893.586     0.003341609
         6899.738     0.003272366
         6905.896     0.003203263
         6912.056     0.003124581
         6918.225     0.003026504
         6924.399     0.002922391
         6930.572     0.002817664
         6936.757     0.002727756
         6942.944     0.002635451
         6949.141     0.002540397
         6955.343     0.002456659
         6961.546     0.002373809
          6967.76     0.002287577
         6973.971     0.002210377
         6980.195     0.002137948
         6986.424     0.002058016
         6992.656     0.001984125
         6998.897     0.001918158
         7005.143     0.001846939
         7011.392     0.001777204
         7017.645     0.001715768
         7023.904     0.001651205
         7030.173     0.001585176
         7036.448     0.001530954
         7042.724     0.001474975
         7049.009     0.001416559
         7055.292     0.001365746
         7061.589     0.001315681
         7067.892     0.001263537
         7074.196     0.001217299
          7080.51     0.001173756
         7086.829     0.001126809
          7093.15     0.001083777
         7099.477     0.001044624
         7105.809     0.001003059
         7112.151     9.636194E-4
         7118.498     9.286135E-4
         7124.848     8.917627E-4
         7131.207     8.555420E-4
         7137.571     8.241863E-4
         7143.933     7.917495E-4
         7150.309     7.589012E-4
         7156.687     7.311975E-4
         7163.074     7.025601E-4
         7169.467     6.729389E-4
         7175.862     6.478138E-4
         7182.262     6.224103E-4
         7188.668     5.956787E-4
         7195.084     5.728486E-4
         7201.506     5.506994E-4
         7207.929     5.273166E-4
         7214.362     5.066902E-4
         7220.801     4.872424E-4
         7227.237     4.666375E-4
         7233.688     4.479516E-4
         7240.144     4.307076E-4
         7246.601     4.123562E-4
         7253.069     3.954335E-4
         7259.538     3.800972E-4
         7266.017     3.642892E-4
         7272.498     3.494525E-4
         7278.989     3.361519E-4
         7285.481     3.217648E-4
         7291.979     3.080488E-4
         7298.487     2.962450E-4
         7305.001     2.838414E-4
         7311.517     2.717590E-4
         7318.038     2.612189E-4
         7324.569     2.502238E-4
         7331.103     2.393763E-4
         7337.646     2.300543E-4
          7344.19     2.203333E-4
         7350.745     2.106017E-4
         7357.301     2.024841E-4
         7363.867     1.940752E-4
         7370.436     1.855820E-4
         7377.014     1.784944E-4
         7383.593     1.709929E-4
         7390.183     1.631899E-4
         7396.775     1.569160E-4
         7403.372     1.503575E-4
         7409.979     1.435256E-4
         7416.589     1.378982E-4
         7423.208     1.321345E-4
         7429.829     1.262285E-4
          7436.46     1.211524E-4
         7443.097     1.160588E-4
         7449.736     1.109205E-4
         7456.381     1.065941E-4
         7463.036     1.021248E-4
         7469.692     9.744961E-5
         7476.359     9.362672E-5
         7483.027     8.971023E-5
         7489.702     8.562696E-5
         7496.386     8.217941E-5
         7503.077     7.873852E-5
         7509.769     7.527096E-5
         7516.471     7.234002E-5
         7523.175     6.933137E-5
          7529.89     6.621069E-5
         7536.606     6.363503E-5
         7543.328     6.093778E-5
         7550.061     5.811095E-5
         7556.794     5.578244E-5
         7563.539     5.359510E-5
          7570.29     5.153340E-5
         7577.042     4.939660E-5
           7583.8     4.733681E-5
         7590.568     4.533073E-5
         7597.339     4.325944E-5
         7604.119     4.143751E-5
         7610.906     3.977092E-5
         7617.694     3.805857E-5
         7624.489     3.654605E-5
          7631.29     3.510285E-5
           7638.1     3.351147E-5
         7644.917     3.215373E-5
         7651.736     3.086012E-5
         7658.565     2.948301E-5
         7665.396     2.829392E-5
         7672.233     2.715280E-5
         7679.081     2.600444E-5
          7685.93     2.496088E-5
          7692.79     2.389675E-5
         7699.655     2.277930E-5
         7706.523     2.197017E-5
         7713.401     2.111025E-5
         7720.276     2.018995E-5
         7727.167     1.941007E-5
         7734.063     1.861997E-5
         7740.961     1.784521E-5
          7747.87     1.720104E-5
         7754.785     1.645462E-5
         7761.697     1.572483E-5
         7768.625     1.517728E-5
         7775.554     1.455049E-5
         7782.494     1.393688E-5
         7789.439     1.338096E-5
         7796.387     1.283961E-5
         7803.345     1.231645E-5
         7810.301     1.181350E-5
         7817.271     1.133566E-5
         7824.249     1.089324E-5
         7831.227     1.047143E-5
         7838.216     1.003713E-5
         7845.212     9.667006E-6
         7852.209     9.322128E-6
         7859.213     8.983277E-6
         7866.223     8.667183E-6
         7873.244     8.299728E-6
         7880.271     7.874025E-6
         7887.299     7.555622E-6
         7894.338     7.288233E-6
         7901.375     7.031960E-6
         7908.427     6.689220E-6
         7915.485     6.408882E-6
         7922.545     6.179037E-6
         7929.616     6.005992E-6
         7936.693     5.826953E-6
         7943.772     5.592941E-6
         7950.858     5.317050E-6
          7957.95     5.082098E-6
         7965.052     4.941104E-6
         7972.161     4.805951E-6
         7979.271     4.597559E-6
         7986.393     4.444050E-6
         7993.521     4.441031E-6
         8000.646     4.615951E-6
         8007.786     5.105209E-6
         8014.929     5.124517E-6
         8022.082     4.834395E-6
         8029.242     4.301795E-6
         8036.403     3.994134E-6
         8043.576     3.658095E-6
         8050.746     3.303195E-6
         8057.931     3.247762E-6
         8065.123     3.489389E-6
         8072.316     3.614570E-6
         8079.521     3.249798E-6
         8086.731     2.881668E-6
          8093.94     2.825850E-6
         8101.164     2.936994E-6
         8108.389     2.587464E-6
         8115.626     2.527665E-6
         8122.869     2.483978E-6
         8130.114     2.344914E-6
          8137.37     2.479409E-6
         8144.628     1.997294E-6
         8151.893     1.477001E-6
         8159.168     1.822619E-6
         8166.446     1.918290E-6
         8173.734     1.895946E-6
         8181.029     1.855393E-6
         8188.326     2.193512E-6
          8195.63     1.717434E-6
         8202.939     1.432673E-6
         8210.261     1.766916E-6
         8217.588     1.710595E-6
         8224.918     1.972013E-6
         8232.259     2.116122E-6
         8239.602     1.655927E-6
          8246.95     1.884169E-6
         8254.311     1.923265E-6
         8261.673     1.769692E-6
         8269.047     1.504661E-6
         8276.427     1.441799E-6
         8283.809     1.278575E-6
         8291.197     1.082997E-6
         8298.597     1.340150E-6
         8305.999     1.216276E-6
         8313.412     8.370818E-7
         8320.827     3.453694E-7
         8328.253     4.887541E-7
         8335.687     9.802540E-7
         8343.121     1.111630E-6
         8350.563     6.839941E-7
         8358.011     1.185170E-6
         8365.471     1.070952E-6
         8372.937     9.059172E-7
         8380.409     9.824594E-7
         8387.879     6.644681E-7
         8395.365     7.742551E-7
         8402.854     1.029426E-6
         8410.353     1.225065E-6
         8417.859     9.686905E-7
         8425.367     1.147723E-6
         8432.887     1.184748E-6
         8440.408     7.555656E-7
         8447.937     9.662230E-7
         8455.477     9.194478E-7
         8463.019     6.406180E-7
         8470.571     2.151078E-7
         8478.127     4.670918E-7
         8485.693     8.858014E-7
         8493.262     9.538745E-7
         8500.842     5.317095E-7
         8508.425     4.436181E-7
         8516.019     3.499399E-7
         8523.614     2.511764E-7
         8531.221     2.117535E-7
          8538.83     5.028096E-7
         8546.446     8.448921E-7
         8554.074     8.785104E-7
         8561.704     7.641231E-7
         8569.345     1.091074E-6
         8576.993     7.994894E-7
         8584.644     6.307466E-7
         8592.301     7.091068E-7
         8599.969     1.090881E-6
          8607.64     8.663547E-7
         8615.321     5.077660E-7
         8623.006     4.091438E-7
         8630.702     7.231179E-7
         8638.405     2.524196E-7
         8646.105     2.874932E-7
         8653.821     5.353271E-7
          8661.54     7.173903E-7
         8669.271     3.093350E-7
         8677.008     1.153993E-7
         8684.747     1.099749E-7
         8692.493     2.683017E-7
         8700.251     5.546729E-7
         8708.012     9.285317E-7
         8715.783     5.930581E-7
         8723.563     3.460906E-7
         8731.343     4.216399E-7
         8739.136     1.818448E-7
         8746.926     4.489022E-7
         8754.732     6.540616E-7
         8762.546     7.243971E-7
         8770.361     6.659674E-7
         8778.188     2.455639E-7
         8786.019     3.119421E-7
         8793.859     6.035616E-7
         8801.703     8.712889E-7
         8809.554     7.622842E-7
         8817.416     3.837116E-7
         8825.286     4.199569E-7
         8833.157     4.643123E-7
         8841.041     2.936888E-7
         8848.922     6.597139E-7
         8856.819     5.586116E-7
         8864.724     5.134636E-7
         8872.631     5.115224E-7
          8880.55     4.116300E-7
         8888.476     1.496334E-7
         8896.403     2.338821E-7
         8904.338     2.034757E-7
          8912.28     1.268688E-7
         8920.234     3.231417E-7
         8928.195     1.737478E-7
         8936.159     1.181115E-7
         8944.135     2.975750E-7
         8952.117     5.345012E-7
         8960.097     4.025526E-7
         8968.094     1.091906E-7
         8976.093     2.408723E-7
         8984.104     4.075306E-7
         8992.122     4.162382E-7
         9000.143     2.438552E-7
         9008.175     1.983132E-7
         9016.205     1.691442E-7
         9024.252     1.412643E-7
         9032.306     1.420772E-7
         9040.362     2.190915E-7
         9048.431     2.524504E-7
         9056.506     3.392749E-7
         9064.579     5.153469E-7
         9072.669     5.569439E-7
         9080.761     2.730852E-7
         9088.865     5.758214E-7
         9096.978     3.466776E-7
         9105.092     3.656211E-7
         9113.218     4.045381E-7
         9121.341     2.019646E-7
         9129.481     1.179865E-7
          9137.63     5.020793E-7
          9145.78     4.395874E-7
         9153.942     2.201944E-7
         9162.112     1.816231E-7
         9170.284     5.293435E-7
         9178.464     4.602952E-7
         9186.655     4.352862E-7
         9194.849     3.846290E-7
         9203.056     2.574741E-7
         9211.264     1.360085E-7
         9219.485     5.158351E-7
         9227.708     3.481047E-7
         9235.938     2.084574E-7
         9244.182     1.927388E-7
         9252.427     2.320531E-7
         9260.685     1.927170E-7
         9268.949     3.357607E-7
         9277.217     1.970772E-7
         9285.492     1.003680E-7
         9293.779     8.218097E-8
         9302.068     1.296588E-7
          9310.37     2.432142E-7
         9318.675     3.890829E-7
         9326.991     4.134857E-7
         9335.315     2.089959E-7
         9343.637     5.042264E-8
         9351.977     1.138172E-7
         9360.317     2.260393E-7
         9368.672     9.209885E-8
         9377.033     2.863107E-7
         9385.396     2.834321E-7
         9393.768     2.353096E-7
         9402.152     2.535747E-7
         9410.538     1.484842E-7
         9418.937     1.769203E-7
         9427.338     3.830090E-7
         9435.752     3.395201E-7
         9444.173     2.420387E-7
         9452.592     2.038954E-7
         9461.028     1.597388E-7
         9469.472     2.526045E-7
         9477.918     1.811684E-7
         9486.377     1.875431E-7
         9494.838     1.720125E-7
         9503.313     1.322486E-7
         9511.788     1.276902E-7
         9520.272     1.813209E-7
          9528.77     2.159515E-7
         9537.269     3.275372E-7
          9545.78     3.308704E-7
           9554.3     2.673372E-7
         9562.821     2.189738E-7
         9571.351     2.332629E-7
         9579.894     3.120697E-7
         9588.438     2.010221E-7
         9596.995     2.467246E-7
         9605.561     2.586739E-7
         9614.128     2.934100E-7
         9622.704     3.578652E-7
         9631.286     3.414498E-7
         9639.882     2.628538E-7
         9648.485     6.869413E-8
         9657.092     1.483919E-7
         9665.711     2.314956E-7
         9674.332     1.875013E-7
         9682.961     1.323417E-7
         9691.603     2.125667E-7
         9700.252     1.844380E-7
         9708.904     1.855066E-7
         9717.569     8.000300E-8
         9726.237     2.320236E-7
         9734.912     2.999537E-7
         9743.601     2.785156E-7
         9752.291     2.703658E-7
         9760.995     1.169679E-7
         9769.701     5.429965E-8
         9778.421     9.484524E-8
         9787.147     1.651140E-7
         9795.872     2.671410E-7
         9804.614     2.328325E-7
         9813.359     1.314324E-7
         9822.118     1.468343E-7
         9830.884     2.063585E-7
         9839.652     1.395571E-7
         9848.435     2.062466E-7
         9857.219     1.261585E-7
         9866.011     1.588492E-7
         9874.816     1.183562E-7
         9883.624     1.094600E-7
         9892.444     2.153846E-7
         9901.273     1.254358E-7
         9910.104     1.134971E-7
         9918.944     8.272612E-8
         9927.791     1.306053E-7
         9936.651     2.340999E-7
         9945.521     2.223037E-7
         9954.391     1.694137E-7
         9963.275     1.629960E-7
         9972.162     1.666835E-7
         9981.057     1.447053E-7
         9989.964     1.555556E-7
          9998.88     1.490572E-7
          10007.8     1.477852E-7
         10016.72     1.825611E-7
         10025.67     1.707659E-7
          10034.6     1.587046E-7
         10043.56     1.617594E-7
         10052.52     1.444545E-7
         10061.49     1.337444E-7
         10070.47     1.433254E-7
         10079.46     1.632472E-7
         10088.45     1.783601E-7
         10097.44     1.717400E-7
         10106.46     1.595749E-7
         10115.48     1.442005E-7
          10124.5     1.275830E-7
         10133.53     1.363822E-7
         10142.58     1.577542E-7
         10151.62     1.266542E-7
         10160.68     1.344788E-7
         10169.74     1.365886E-7
         10178.81     1.282115E-7
          10187.9     1.213292E-7
         10196.99     1.204390E-7
         10206.08     1.274829E-7
         10215.19     1.515709E-7
         10224.31     1.513938E-7
         10233.43     1.298410E-7
         10242.56     1.272304E-7
         10251.69     1.115067E-7
         10260.85     1.072196E-7
           10270.     1.118576E-7
         10279.16     1.061231E-7
         10288.33     1.079238E-7
         10297.51     1.022930E-7
          10306.7     1.170270E-7
         10315.89     1.197834E-7
          10325.1     1.136627E-7
          10334.3     1.034897E-7
         10343.53     8.840730E-8
         10352.76     8.730456E-8
         10361.99     1.055194E-7
         10371.25     9.782831E-8
          10380.5     1.081626E-7
         10389.76     9.788833E-8
         10399.02     9.938250E-8
          10408.3     8.683232E-8
         10417.59     7.537358E-8
         10426.89     7.291801E-8
         10436.19     7.056286E-8
         10445.49     6.748459E-8
         10454.82     6.487473E-8
         10464.15     6.429741E-8
         10473.48     6.421490E-8
         10482.82     6.054529E-8
         10492.17     5.270028E-8
         10501.54     4.238119E-8
         10510.91     4.874526E-8
         10520.29     4.840398E-8
         10529.67     4.846064E-8
         10539.07     4.027671E-8
         10548.47     4.328649E-8
         10557.88     4.090136E-8
         10567.31     4.450586E-8
         10576.73     4.127432E-8
         10586.17     4.328306E-8
         10595.61     4.645432E-8
         10605.06     4.529214E-8
         10614.53     4.163344E-8
           10624.     4.162836E-8
         10633.48     4.390929E-8
         10642.96     4.291143E-8
         10652.45     4.469183E-8
         10661.97     3.998312E-8
         10671.48     4.079016E-8
         10680.99     3.954630E-8
         10690.53     4.381761E-8
         10700.07     3.813465E-8
         10709.61     3.821183E-8
         10719.16     4.182775E-8
         10728.72     4.333329E-8
         10738.31     4.283331E-8
         10747.88     3.701437E-8
         10757.47     3.665186E-8
         10767.08     3.766953E-8
         10776.67     3.798318E-8
         10786.29     3.749252E-8
         10795.91     3.635293E-8
         10805.54     3.491921E-8
         10815.18     3.431665E-8
         10824.83     3.397583E-8
         10834.49     3.364254E-8
         10844.17     3.378338E-8
         10853.84     3.235429E-8
         10863.52     2.963897E-8
         10873.21     2.903771E-8
         10882.91     2.845099E-8
         10892.63     2.655705E-8
         10902.35     2.700280E-8
         10912.07     2.624429E-8
         10921.81     2.446587E-8
         10931.54     2.370132E-8
         10941.31     2.341500E-8
         10951.07     2.234678E-8
         10960.83     2.006522E-8
         10970.62     1.923900E-8
         10980.39     1.944379E-8
          10990.2     1.648132E-8
           11000.     1.578030E-8
