#  Table pcf606wsys.tab  Mon 12:21:17 02-Jun-97

#      WAVELENGTH      THROUGHPUT
#       angstroms                

            1850.     7.441482E-7
         1851.651     7.861629E-7
         1853.301     8.285245E-7
         1854.956     8.713577E-7
         1856.611     9.145256E-7
         1858.267     9.580900E-7
         1859.925     1.002079E-6
         1861.584     8.970694E-7
         1863.246     7.838465E-7
         1864.909     6.694743E-7
         1866.572     5.540319E-7
         1868.237     4.374293E-7
         1869.904     3.196000E-7
         1871.573     2.690962E-7
         1873.242     2.223017E-7
         1874.913     1.750398E-7
         1876.585     1.273047E-7
          1878.26     7.905874E-8
         1879.937     3.032594E-8
         1881.613     2.854655E-8
         1883.292     2.861983E-8
         1884.973     2.869301E-8
         1886.654     2.876601E-8
         1888.338     2.883893E-8
         1890.023     2.950451E-8
         1891.709     7.329458E-8
         1893.396     1.174630E-7
         1895.086     1.620336E-7
         1896.775     2.069269E-7
         1898.469     2.522839E-7
         1900.163     3.019664E-7
         1901.857     3.892951E-7
         1903.555     4.774831E-7
         1905.254     5.664259E-7
         1906.953     6.560616E-7
         1908.655     7.465085E-7
         1910.357     8.028757E-7
         1912.061     7.280751E-7
         1913.768     6.525621E-7
         1915.476     5.763718E-7
         1917.184     4.995516E-7
         1918.894     4.220502E-7
         1920.606     3.642109E-7
          1922.32     3.431591E-7
         1924.035     3.219152E-7
         1925.752     3.004891E-7
          1927.47     2.788574E-7
         1929.189     2.570424E-7
          1930.91     2.611613E-7
         1932.634     2.887087E-7
         1934.358     3.164871E-7
         1936.084     3.444795E-7
         1937.811     3.727082E-7
          1939.54     4.011882E-7
          1941.27     4.194693E-7
         1943.003     4.341157E-7
         1944.737     4.488778E-7
          1946.47     4.637372E-7
         1948.207     4.787306E-7
         1949.947     4.938495E-7
         1951.685     4.800602E-7
         1953.427     4.652041E-7
         1955.171     4.502066E-7
         1956.913     4.350850E-7
          1958.66     4.198019E-7
         1960.408     4.014234E-7
         1962.157     3.731589E-7
         1963.908     3.446204E-7
         1965.658     3.158611E-7
         1967.413     2.868098E-7
         1969.169     2.574978E-7
         1970.925     2.499544E-7
         1972.684     2.622187E-7
         1974.444     2.745741E-7
         1976.205     2.870287E-7
         1977.969     2.995977E-7
         1979.734     3.122516E-7
           1981.5     3.225690E-7
         1983.268     3.325381E-7
         1985.037     3.425781E-7
         1986.809     3.527007E-7
         1988.581     3.628939E-7
         1990.355     3.624675E-7
         1992.131     3.191164E-7
         1993.908     2.753858E-7
         1995.688     2.312196E-7
         1997.467     1.867535E-7
          1999.25     1.418492E-7
         2001.034     1.187264E-7
         2002.818     1.115576E-7
         2004.606     1.043007E-7
         2006.396     9.697258E-8
         2008.184     8.957847E-8
         2009.976     8.209936E-8
         2011.769     8.816386E-8
         2013.565     9.447211E-8
         2015.362     1.008400E-7
         2017.158     1.072594E-7
         2018.958     1.137465E-7
          2020.76     1.153364E-7
         2022.563     1.101154E-7
         2024.368     1.048365E-7
         2026.173     9.950644E-8
         2027.982     9.411792E-8
         2029.791     8.867742E-8
         2031.602     9.715211E-8
         2033.414     1.075356E-7
         2035.228     1.180160E-7
         2037.044     1.286001E-7
         2038.861     1.392756E-7
         2040.681     1.493599E-7
         2042.502     1.583668E-7
         2044.324     1.674500E-7
         2046.147     1.766139E-7
         2047.974     1.858658E-7
           2049.8     1.951943E-7
          2051.63     1.952422E-7
         2053.461     1.941309E-7
         2055.291     1.930050E-7
         2057.125     1.918618E-7
         2058.961     1.907024E-7
         2060.798     1.849491E-7
         2062.637     1.731394E-7
         2064.477     1.612237E-7
         2066.318     1.491951E-7
         2068.164     1.370370E-7
         2070.007     1.247912E-7
         2071.855     1.137381E-7
         2073.704     1.025833E-7
         2075.553     9.133214E-8
         2077.405     7.997836E-8
         2079.259     6.851092E-8
         2081.113     6.321226E-8
         2082.971     6.205538E-8
         2084.829     6.088750E-8
         2086.688     5.970795E-8
          2088.55     5.851576E-8
         2090.414     5.723517E-8
         2092.279     5.567406E-8
         2094.145     5.409864E-8
         2096.014     5.250715E-8
         2097.885     5.090100E-8
         2099.756     4.928094E-8
          2101.63     5.836809E-8
         2103.503     6.913099E-8
         2105.381     7.999355E-8
          2107.26     9.094649E-8
         2109.139     1.019815E-7
         2111.022     1.095593E-7
         2112.906     1.141909E-7
         2114.789     1.188516E-7
         2116.677     1.235535E-7
         2118.564     1.282878E-7
         2120.455     1.293520E-7
         2122.348     1.186791E-7
         2124.241     1.079296E-7
         2126.135     9.709338E-8
         2128.033     8.616583E-8
         2129.932     7.515075E-8
         2131.832     6.656948E-8
         2133.734     5.801523E-8
         2135.637     4.939760E-8
         2137.544     4.070405E-8
          2139.45     3.196379E-8
         2141.359     3.003384E-8
          2143.27     3.088265E-8
         2145.182     3.173698E-8
         2147.096     3.259777E-8
         2149.011     3.346402E-8
         2150.929     3.761806E-8
         2152.848     4.530264E-8
         2154.768     5.304221E-8
         2156.692     6.084700E-8
         2158.615     6.869244E-8
         2160.541     7.270983E-8
         2162.469     6.674731E-8
         2164.397     6.075078E-8
          2166.33     5.470103E-8
         2168.263     4.861230E-8
         2170.196     4.272989E-8
         2172.133     3.893633E-8
          2174.07     3.512109E-8
         2176.011     3.127829E-8
         2177.953     2.741070E-8
         2179.895     2.352118E-8
          2181.84     2.137267E-8
         2183.787     1.931089E-8
         2185.735     1.723783E-8
         2187.686     1.515138E-8
         2189.637     1.305384E-8
          2191.59     1.243519E-8
         2193.546     1.215475E-8
         2195.503     1.187275E-8
         2197.462     1.158930E-8
         2199.423     1.130402E-8
         2201.385     1.570726E-8
         2203.348     2.215318E-8
         2205.315     2.870792E-8
         2207.283     3.536728E-8
         2209.252     4.212756E-8
         2211.222     5.377940E-8
         2213.196     6.857741E-8
          2215.17     8.359194E-8
         2217.147     9.884646E-8
         2219.125     1.143311E-7
         2221.104     1.228108E-7
         2223.086     1.256489E-7
         2225.071     1.285207E-7
         2227.055     1.314192E-7
         2229.042     1.343535E-7
         2231.031     1.332586E-7
         2233.021     1.283339E-7
         2235.015     1.233207E-7
         2237.008     1.182308E-7
         2239.003     1.130569E-7
         2241.002     1.070260E-7
         2242.999     1.001381E-7
         2245.002     9.313310E-8
         2247.005     8.603104E-8
         2249.009     7.882281E-8
         2251.016     7.100859E-8
         2253.024     6.259937E-8
         2255.033     5.407261E-8
         2257.046     4.542144E-8
         2259.061     3.665149E-8
         2261.075     3.139503E-8
         2263.092     2.925816E-8
         2265.112     2.709013E-8
         2267.134     2.489209E-8
         2269.156     2.266553E-8
         2271.181     2.431547E-8
         2273.207     2.879409E-8
         2275.234     3.332741E-8
         2277.266     3.792124E-8
         2279.296     4.256085E-8
          2281.33     4.571930E-8
         2283.366     4.809155E-8
         2285.402     5.048717E-8
         2287.441     5.291202E-8
         2289.483     5.536307E-8
         2291.525     5.048046E-8
          2293.57     4.302157E-8
         2295.615     3.548207E-8
         2297.663     2.785034E-8
         2299.715     2.011971E-8
         2301.765     1.688057E-8
          2303.82     1.433975E-8
         2305.876     1.176742E-8
         2307.932     9.164979E-9
         2309.992     6.528884E-9
         2312.051     6.536738E-9
         2314.116     6.554624E-9
          2316.18     6.572365E-9
         2318.246     6.589979E-9
         2320.315     6.610174E-9
         2322.385     6.645360E-9
         2324.457     6.680652E-9
         2326.531     6.716002E-9
         2328.606     6.751436E-9
         2330.685     6.786834E-9
         2332.764     6.821931E-9
         2334.845     6.857114E-9
         2336.927     6.892375E-9
         2339.012     6.927717E-9
         2341.101     7.046542E-9
         2343.188     7.241390E-9
         2345.279     7.438091E-9
         2347.372     7.636744E-9
         2349.467     7.837220E-9
         2351.562     9.862325E-9
         2353.661     1.253643E-8
         2355.759     1.523488E-8
         2357.862     1.796502E-8
         2359.966     2.072321E-8
         2362.071     2.379991E-8
         2364.179     2.691443E-8
         2366.288     3.005813E-8
         2368.398     3.323330E-8
         2370.512     3.719788E-8
         2372.628     4.357974E-8
         2374.744     5.002022E-8
         2376.863     5.652771E-8
         2378.983     6.309499E-8
         2381.105     7.318876E-8
          2383.23     8.659199E-8
         2385.357     1.001226E-7
         2387.485     1.137750E-7
         2389.615     1.275555E-7
         2391.747     1.302342E-7
         2393.881     1.304412E-7
         2396.017     1.306460E-7
         2398.154     1.308484E-7
         2400.293     1.304287E-7
         2402.435     1.260761E-7
          2404.58     1.216789E-7
         2406.724     1.172404E-7
         2408.872     1.127548E-7
         2411.022     1.081365E-7
         2413.171     1.033817E-7
         2415.326     9.857237E-8
         2417.479     9.372633E-8
         2419.637     8.882751E-8
         2421.796     7.934129E-8
         2423.957     6.885325E-8
          2426.12     5.826551E-8
         2428.284     4.759086E-8
         2430.451     3.856012E-8
         2432.619     3.612724E-8
         2434.789     3.367290E-8
         2436.962     3.119509E-8
         2439.136     2.869565E-8
         2441.312     2.752880E-8
          2443.49     2.724620E-8
          2445.67     2.696043E-8
         2447.853     2.667156E-8
         2450.036     2.633144E-8
         2452.222     2.311508E-8
         2454.409     1.987181E-8
           2456.6     1.659932E-8
         2458.792     1.330004E-8
         2460.985     1.122847E-8
          2463.18     1.068336E-8
         2465.379     1.013325E-8
         2467.579     9.578559E-9
         2469.778     9.019881E-9
         2471.983     8.991745E-9
          2474.19     9.023396E-9
         2476.396     9.055048E-9
         2478.606     9.086793E-9
         2480.817     9.118515E-9
         2483.029     9.150192E-9
         2485.247     9.181967E-9
         2487.462     9.213739E-9
         2489.682     9.245604E-9
         2491.904     1.060342E-8
         2494.125     1.219178E-8
         2496.353     1.379524E-8
         2498.579     1.540894E-8
         2500.808     1.865808E-8
          2503.04     2.480098E-8
         2505.272     3.098685E-8
         2507.509     3.722463E-8
         2509.745     4.350496E-8
         2511.985     4.647815E-8
         2514.225     4.903804E-8
         2516.468     5.161694E-8
         2518.714     5.421608E-8
         2520.962     5.498176E-8
          2523.21     5.326566E-8
         2525.462     5.153417E-8
         2527.715     4.978952E-8
         2529.971     4.802937E-8
         2532.229     4.284338E-8
         2534.486     3.757785E-8
         2536.748     3.226483E-8
          2539.01     2.687014E-8
         2541.277     2.348051E-8
         2543.545     2.166020E-8
         2545.813     1.983336E-8
         2548.084     1.799904E-8
         2550.358     1.628072E-8
         2552.635     1.522241E-8
         2554.911     1.416051E-8
         2557.191     1.309343E-8
         2559.471     1.202325E-8
         2561.755     1.149288E-8
         2564.042     1.112503E-8
         2566.329     1.075580E-8
         2568.619     1.038478E-8
         2570.908     1.016672E-8
         2573.205     1.018257E-8
           2575.5     1.019833E-8
         2577.797     1.021402E-8
         2580.097     1.022969E-8
         2582.399     1.024577E-8
         2584.704     1.026179E-8
          2587.01     1.027775E-8
         2589.318     1.029363E-8
         2591.629     1.030981E-8
          2593.94     1.032606E-8
         2596.254     1.034224E-8
         2598.573     1.035838E-8
         2600.889     1.048021E-8
          2603.21     1.077307E-8
         2605.532     1.106678E-8
         2607.856     1.136156E-8
         2610.185     1.165334E-8
         2612.512     1.189457E-8
         2614.843     1.213691E-8
         2617.177     1.238009E-8
          2619.51     1.262381E-8
         2621.849     1.714558E-8
         2624.188     2.281578E-8
         2626.528     2.850877E-8
         2628.873     3.422862E-8
         2631.217     4.523852E-8
         2633.566     6.119870E-8
         2635.916     7.722355E-8
         2638.267     9.330444E-8
          2640.62     1.067642E-7
         2642.977     1.127574E-7
         2645.334     1.187705E-7
         2647.695     1.248101E-7
         2650.057     1.303895E-7
         2652.422     1.164856E-7
         2654.788     1.025315E-7
         2657.157     8.850866E-8
         2659.526     7.444338E-8
         2661.899     6.252716E-8
         2664.275     5.111664E-8
         2666.652     3.966457E-8
         2669.031     2.815821E-8
         2671.412     2.506815E-8
         2673.796     2.778195E-8
         2676.181     3.050474E-8
          2678.57     3.324007E-8
          2680.96     3.641616E-8
          2683.35     4.024242E-8
         2685.746     4.409072E-8
          2688.14     4.794728E-8
          2690.54     4.969818E-8
         2692.941     4.411147E-8
         2695.343     3.850390E-8
         2697.748     3.286987E-8
         2700.153     2.779913E-8
         2702.563     3.126835E-8
         2704.975     3.476162E-8
         2707.387     3.827721E-8
         2709.804     4.181981E-8
         2712.222     4.775420E-8
         2714.642     5.393624E-8
         2717.063     6.016094E-8
         2719.486     6.642967E-8
         2721.915     7.602094E-8
         2724.343     8.654816E-8
         2726.772     9.714903E-8
         2729.205     1.078238E-7
          2731.64     1.159646E-7
         2734.078     1.228885E-7
         2736.517     1.298552E-7
         2738.958     1.368682E-7
         2741.402     1.350622E-7
         2743.849     1.266211E-7
         2746.296     1.181238E-7
         2748.747     1.095589E-7
         2751.198     1.005352E-7
         2753.653     9.104349E-8
         2756.111     8.152899E-8
         2758.569     7.199734E-8
         2761.031     7.024824E-8
         2763.495     7.935564E-8
         2765.958     8.847366E-8
         2768.427     9.762403E-8
         2770.898     1.096744E-7
         2773.369     1.267903E-7
         2775.844     1.439564E-7
          2778.32     1.611526E-7
         2780.799     1.748999E-7
          2783.28     1.813280E-7
         2785.764     1.877715E-7
         2788.249     1.942253E-7
         2790.736     1.920276E-7
         2793.227     1.691628E-7
          2795.72     1.462460E-7
         2798.213     1.232905E-7
         2800.709     1.012322E-7
         2803.209     8.150803E-8
         2805.709     6.175127E-8
         2808.213     4.193685E-8
         2810.718     2.727316E-8
         2813.226     2.549464E-8
         2815.736     2.371326E-8
         2818.247     2.192797E-8
         2820.764     2.470783E-8
         2823.278     3.797452E-8
         2825.798     5.128629E-8
          2828.32     6.462646E-8
         2830.843     7.855058E-8
         2833.369     9.363728E-8
         2835.898     1.087572E-7
         2838.426     1.238899E-7
         2840.959     1.288879E-7
         2843.495     1.171551E-7
         2846.031     1.054049E-7
         2848.571     9.362156E-8
         2851.112     8.503375E-8
         2853.655     8.056091E-8
         2856.202     7.607635E-8
         2858.751     7.158270E-8
         2861.301     6.821004E-8
         2863.853     6.591529E-8
         2866.407     6.361572E-8
         2868.965     6.130999E-8
         2871.526     5.882782E-8
         2874.087     5.622580E-8
         2876.652     5.361673E-8
         2879.218     5.100431E-8
         2881.788     5.138890E-8
         2884.358     5.308943E-8
         2886.931     5.479337E-8
         2889.507     5.650154E-8
         2892.084     6.566935E-8
         2894.666     7.662646E-8
         2897.248     8.759892E-8
         2899.832     9.859095E-8
         2902.421     8.525677E-8
          2905.01     7.027240E-8
         2907.601     5.531250E-8
         2910.198     4.099948E-8
          2912.79     3.449335E-8
         2915.392     2.798237E-8
         2917.992     2.149112E-8
         2920.594     1.820780E-8
         2923.203     2.573056E-8
         2925.807     3.322145E-8
          2928.42     4.071620E-8
         2931.033     5.068419E-8
         2933.646     6.442656E-8
         2936.266     7.816725E-8
         2938.885     9.186378E-8
         2941.506     9.135501E-8
         2944.131     8.034643E-8
         2946.757     6.936556E-8
         2949.387     5.839924E-8
         2952.018     5.904518E-8
         2954.653     6.320742E-8
          2957.29     6.736096E-8
         2959.926     7.150077E-8
         2962.567     8.731708E-8
          2965.21     1.034294E-7
         2967.856     1.195156E-7
         2970.505     1.321564E-7
         2973.155     1.302941E-7
         2975.808     1.284336E-7
         2978.461     1.265786E-7
         2981.121     1.220127E-7
          2983.78     1.137452E-7
         2986.441     1.054949E-7
         2989.104     9.726252E-8
         2991.772     8.750127E-8
         2994.442     7.698512E-8
         2997.113     6.649748E-8
         2999.788     5.602601E-8
         3002.464     5.411331E-8
         3005.142     5.293673E-8
         3007.826     5.176095E-8
         3010.507     5.402059E-8
         3013.194     7.100258E-8
         3015.883     8.794485E-8
         3018.573     1.048364E-7
         3021.267     1.221628E-7
          3023.96     1.399478E-7
          3026.66     1.577217E-7
          3029.36     1.754311E-7
         3032.062     1.780000E-7
          3034.77     1.758778E-7
         3037.475     1.737633E-7
         3040.186     1.716042E-7
         3042.897     1.688259E-7
         3045.612     1.660531E-7
         3048.332     1.632824E-7
         3051.051     1.513958E-7
         3053.772     1.250599E-7
         3056.497     9.877138E-8
         3059.222     7.258468E-8
         3061.954     5.518836E-8
         3064.685     4.134777E-8
         3067.418     2.754163E-8
         3070.156     1.456148E-8
         3072.896     1.479989E-8
         3075.637     1.503741E-8
          3078.38     1.527417E-8
         3081.126     1.844678E-8
         3083.877     2.584004E-8
         3086.628     3.320450E-8
         3089.381     4.054795E-8
         3092.137     4.103719E-8
         3094.895     3.954703E-8
         3097.659     3.805881E-8
         3100.422     3.591576E-8
         3103.187     3.009198E-8
         3105.955     2.424549E-8
         3108.729     1.836897E-8
         3111.501     1.604155E-8
         3114.277     1.673149E-8
         3117.056     1.742447E-8
         3119.836     1.811958E-8
         3122.621     1.902592E-8
         3125.406     1.994827E-8
         3128.195     2.087461E-8
         3130.985     2.047951E-8
         3133.778     1.765119E-8
         3136.575     1.481015E-8
         3139.373     1.195983E-8
         3142.175     1.165081E-8
         3144.979     1.207930E-8
         3147.784     1.250918E-8
         3150.592     1.400663E-8
         3153.405     1.951973E-8
         3156.218     2.504684E-8
         3159.035     3.059905E-8
         3161.851     3.195242E-8
         3164.674     3.110627E-8
         3167.497     3.025777E-8
         3170.322     2.949906E-8
         3173.152     2.946262E-8
         3175.982     2.942596E-8
         3178.816     2.938902E-8
         3181.652     2.998048E-8
          3184.49     3.102551E-8
         3187.333     3.207590E-8
         3190.175     3.281862E-8
         3193.022     2.881800E-8
          3195.87     2.480397E-8
         3198.722     2.077200E-8
         3201.577     2.044518E-8
         3204.433     2.313777E-8
         3207.291     2.584063E-8
         3210.151     2.839059E-8
         3213.018     2.802199E-8
         3215.884     2.765233E-8
         3218.752     2.728112E-8
         3221.623     2.560155E-8
         3224.499     2.290690E-8
         3227.376     2.020155E-8
         3230.255     1.763142E-8
         3233.136     1.653610E-8
          3236.02     1.543643E-8
         3238.908     1.433173E-8
         3241.799     1.562608E-8
          3244.69     1.838591E-8
         3247.584     2.115680E-8
         3250.485     2.562006E-8
         3253.384     3.847090E-8
         3256.286     5.137214E-8
         3259.192     6.433155E-8
         3262.097     6.028450E-8
          3265.01     4.961806E-8
         3267.922     3.892383E-8
         3270.837     2.968881E-8
         3273.758     2.414548E-8
         3276.675     1.859457E-8
         3279.601     1.300765E-8
         3282.526     1.225824E-8
         3285.454     1.227449E-8
         3288.388     1.229078E-8
         3291.319     1.227839E-8
         3294.257     1.223072E-8
         3297.195     1.218285E-8
         3300.137     1.213784E-8
         3303.083     1.215631E-8
         3306.029     1.217481E-8
         3308.979     1.219334E-8
         3311.931     1.316495E-8
         3314.885     1.464531E-8
         3317.844     1.613234E-8
         3320.803     1.701000E-8
         3323.767     1.623679E-8
         3326.731     1.546090E-8
           3329.7     1.468136E-8
          3332.67     1.479790E-8
         3335.643     1.501592E-8
         3338.622     1.523500E-8
         3341.599     1.544274E-8
          3344.58     1.564099E-8
         3347.563     1.583996E-8
         3350.551     1.628022E-8
         3353.541     1.778854E-8
         3356.532     1.930196E-8
         3359.528     2.082222E-8
         3362.524     3.424940E-8
         3365.525     4.997068E-8
         3368.527     6.574564E-8
         3371.532     8.858593E-8
         3374.541     1.182871E-7
         3377.551     1.480904E-7
         3380.565     1.672831E-7
         3383.582     1.398677E-7
         3386.598     1.123748E-7
         3389.623     8.471945E-8
         3392.646     7.661396E-8
         3395.672     7.127960E-8
         3398.705     6.591689E-8
         3401.732     7.515155E-8
          3404.77     9.542106E-8
         3407.807     1.157479E-7
         3410.847     1.353720E-7
         3413.893     1.530595E-7
         3416.938     1.707969E-7
         3419.985     1.886071E-7
         3423.038     2.075453E-7
         3426.089     2.265424E-7
         3429.148     2.456511E-7
         3432.207     2.983282E-7
         3435.268     3.641836E-7
         3438.334     4.303504E-7
         3441.401     4.582838E-7
         3444.473     4.404728E-7
         3447.545     4.225996E-7
         3450.622     3.970419E-7
         3453.701     3.412899E-7
         3456.782     2.853456E-7
         3459.865     2.291642E-7
         3462.951     2.109527E-7
         3466.042     1.944081E-7
         3469.135     1.777940E-7
         3472.229     1.817857E-7
         3475.326     1.938334E-7
         3478.426     2.059304E-7
         3481.532     2.184681E-7
         3484.638     2.314309E-7
         3487.746     2.444460E-7
         3490.859     2.538800E-7
         3493.972     2.537618E-7
         3497.091     2.536420E-7
          3500.21     2.526977E-7
         3503.334     2.403095E-7
          3506.46     2.278668E-7
         3509.586     2.153850E-7
          3512.72     2.064824E-7
         3515.852     1.981130E-7
         3518.989     1.896971E-7
          3522.13     1.915037E-7
         3525.271     1.981948E-7
         3528.418     2.049178E-7
         3531.563     2.187700E-7
         3534.717     2.399358E-7
          3537.87     2.611674E-7
         3541.025     2.721310E-7
         3544.188     2.615455E-7
         3547.349     2.509263E-7
         3550.513     2.385940E-7
         3553.679     2.175718E-7
         3556.849     1.964560E-7
         3560.026     1.754747E-7
         3563.201     1.857669E-7
         3566.379     1.961032E-7
         3569.562     2.064916E-7
         3572.746     1.965644E-7
         3575.935     1.833288E-7
         3579.124     1.700427E-7
         3582.316     1.397774E-7
         3585.513     1.029412E-7
         3588.714     6.593697E-8
         3591.915     4.649435E-8
         3595.118     3.889091E-8
         3598.325     3.125269E-8
         3601.538     2.927113E-8
         3604.751     3.349848E-8
         3607.966     3.774436E-8
         3611.184     4.805401E-8
         3614.409     6.885131E-8
         3617.633     8.971463E-8
         3620.859     1.078353E-7
         3624.089     1.182099E-7
         3627.322     1.286300E-7
         3630.561     1.347501E-7
         3633.799     1.200376E-7
          3637.04     1.052582E-7
         3640.286     9.162326E-8
         3643.533     9.057564E-8
         3646.785     8.952231E-8
         3650.038     8.871601E-8
         3653.295     1.094913E-7
         3656.556     1.303618E-7
         3659.815     1.512983E-7
         3663.082     1.393478E-7
         3666.353     1.253491E-7
         3669.621     1.113113E-7
         3672.896     9.604013E-8
         3676.172     8.055584E-8
         3679.451     6.500198E-8
         3682.737     7.070192E-8
         3686.022     8.070942E-8
         3689.309     9.076125E-8
           3692.6     1.127233E-7
         3695.896     1.379579E-7
         3699.194     1.633085E-7
         3702.494     1.856460E-7
         3705.798     2.070883E-7
         3709.101     2.286000E-7
         3712.412     2.360031E-7
         3715.725     2.381207E-7
         3719.039     2.402455E-7
         3722.358     2.336103E-7
         3725.678     2.233678E-7
         3729.004     2.130709E-7
          3732.33     1.977347E-7
         3735.659     1.801829E-7
         3738.995     1.625284E-7
          3742.33     1.550605E-7
         3745.668     1.519902E-7
         3749.009     1.489050E-7
         3752.354     1.481091E-7
         3755.703     1.482825E-7
         3759.053     1.484558E-7
         3762.408     1.375178E-7
         3765.764     1.221582E-7
         3769.125     1.067194E-7
         3772.487     9.263575E-8
         3775.852     7.898736E-8
         3779.222     6.526648E-8
         3782.594     5.412601E-8
         3785.968     4.373555E-8
         3789.345     3.329706E-8
         3792.725     2.974715E-8
         3796.112     2.784978E-8
         3799.498     2.594592E-8
         3802.887     3.423642E-8
         3806.279     4.434305E-8
         3809.676     5.450255E-8
         3813.076     6.538666E-8
         3816.477     7.638576E-8
         3819.881     8.743402E-8
          3823.29     9.264474E-8
           3826.7     9.766194E-8
         3830.116     1.024544E-7
         3833.532     1.001230E-7
         3836.951     9.778064E-8
         3840.378     9.402090E-8
         3843.803     7.890231E-8
         3847.232     6.371569E-8
         3850.663     5.117680E-8
         3854.102     4.994930E-8
          3857.54     4.871751E-8
          3860.98     5.070578E-8
         3864.426     6.082735E-8
         3867.875     7.099420E-8
         3871.325     7.748111E-8
         3874.778     7.801643E-8
         3878.234     7.855373E-8
         3881.695     7.436970E-8
         3885.157     6.523891E-8
         3888.625     5.606120E-8
         3892.094     5.370645E-8
         3895.565     5.585742E-8
         3899.044     5.802049E-8
         3902.521     7.286143E-8
         3906.002     9.258661E-8
         3909.489     1.124100E-7
         3912.975     1.287057E-7
         3916.468     1.444629E-7
         3919.961     1.602781E-7
         3923.457     1.434667E-7
         3926.961     1.261891E-7
         3930.462     1.108510E-7
         3933.969     1.085304E-7
         3937.478     1.062006E-7
         3940.992     1.064377E-7
          3944.51     1.132457E-7
         3948.028     1.200784E-7
          3951.55     1.279921E-7
         3955.074     1.372808E-7
         3958.606     1.466208E-7
         3962.137     1.602105E-7
         3965.671     1.766172E-7
          3969.21     1.931034E-7
          3972.75     1.887148E-7
         3976.296     1.782738E-7
         3979.843     1.677941E-7
         3983.395     1.635320E-7
          3986.95     1.595423E-7
         3990.504     1.579178E-7
         3994.065     1.707293E-7
          3997.63     1.835944E-7
         4001.196     1.941287E-7
         4004.767     1.999741E-7
         4008.339     2.058194E-7
         4011.914     2.018333E-7
         4015.494     1.892931E-7
         4019.078     1.767457E-7
         4022.663     1.567459E-7
         4026.251     1.341518E-7
         4029.844     1.115333E-7
         4033.441     9.877126E-8
         4037.039     8.645737E-8
         4040.639     7.709115E-8
         4044.243     8.141182E-8
         4047.855     8.573996E-8
         4051.465     9.345097E-8
         4055.079     1.061266E-7
         4058.698     1.188152E-7
         4062.316     1.248209E-7
         4065.944     1.270805E-7
          4069.57     1.293380E-7
           4073.2     1.214096E-7
         4076.838     1.120985E-7
         4080.472     1.035129E-7
         4084.114     9.969761E-8
         4087.756     9.588312E-8
         4091.405     8.996108E-8
         4095.056     8.067352E-8
         4098.708     7.138940E-8
         4102.367     6.365127E-8
         4106.026     5.676467E-8
         4109.688     4.987685E-8
         4113.356     5.640268E-8
         4117.025     6.417373E-8
         4120.699     7.236754E-8
         4124.375     8.232963E-8
         4128.056     9.230065E-8
         4131.738     9.597837E-8
         4135.423     9.261689E-8
         4139.116     8.925014E-8
         4142.808     8.733948E-8
         4146.503     8.588545E-8
         4150.201     8.471208E-8
         4153.903     8.842335E-8
         4157.613     9.213902E-8
         4161.321     9.585795E-8
         4165.033     9.958985E-8
         4168.748     1.033222E-7
         4172.466     1.001421E-7
         4176.192     9.344081E-8
         4179.917     8.674665E-8
         4183.645     7.366016E-8
         4187.379     6.041812E-8
         4191.116     5.039540E-8
         4194.854     4.793966E-8
         4198.596     4.548374E-8
         4202.343     4.663477E-8
         4206.094     4.995585E-8
         4209.845     5.328384E-8
         4213.603     4.529496E-8
         4217.358     3.680750E-8
         4221.123     2.939681E-8
          4224.89     2.458603E-8
         4228.658     1.976465E-8
         4232.432     1.790356E-8
         4236.208     1.768230E-8
         4239.988     1.746030E-8
          4243.77     1.747510E-8
         4247.555     1.749067E-8
         4251.348     1.750625E-8
          4255.14     1.752183E-8
         4258.936     1.753742E-8
         4262.734     1.755285E-8
         4266.537     1.756822E-8
         4270.347     1.758364E-8
         4274.155     1.759904E-8
         4277.968     1.761446E-8
         4281.786     1.762979E-8
         4285.605     1.764500E-8
          4289.43     1.766024E-8
         4293.256     1.767545E-8
         4297.085     1.769068E-8
         4300.922     1.770588E-8
         4304.759     1.772092E-8
         4308.598     1.773598E-8
         4312.441     1.775103E-8
          4316.29     1.776610E-8
         4320.142     1.778118E-8
         4323.996     1.779625E-8
         4327.854     1.781135E-8
         4331.715     1.782644E-8
         4335.581     1.784154E-8
         4339.448     1.785665E-8
         4343.318     1.787157E-8
         4347.195     1.788648E-8
         4351.072     1.790134E-8
         4354.956     1.791606E-8
          4358.84     1.793079E-8
         4362.728     1.969953E-8
         4366.624     2.222357E-8
         4370.519     3.855615E-8
         4374.417     1.449754E-7
         4378.318     2.516492E-7
         4382.229     1.079814E-6
         4386.137     2.453392E-6
         4390.049     3.841100E-6
         4393.967     6.071277E-6
         4397.889     8.307279E-6
         4401.812     1.013362E-5
         4405.738     1.148201E-5
         4409.667     1.283378E-5
         4413.603     1.310662E-5
         4417.542     1.328000E-5
         4421.482     1.303977E-5
         4425.426     1.211146E-5
         4429.373     1.118094E-5
         4433.329     9.744458E-6
         4437.283     8.211362E-6
         4441.241     6.699328E-6
         4445.205     5.236524E-6
         4449.169     3.770999E-6
          4453.14     2.728511E-6
         4457.112     1.797205E-6
         4461.088     1.026425E-6
         4465.069     6.864234E-7
         4469.052     3.457987E-7
         4473.041     2.134628E-7
          4477.03     1.462491E-7
         4481.028     9.426230E-8
         4485.022     8.692274E-8
         4489.025     7.955528E-8
         4493.032     7.690512E-8
         4497.039     7.577389E-8
         4501.053     7.451766E-8
         4505.067     7.290961E-8
         4509.086     7.128474E-8
         4513.107     7.721273E-8
         4517.136     8.543495E-8
         4521.167     9.319074E-8
           4525.2     9.968867E-8
         4529.238     1.062447E-7
         4533.281     1.083633E-7
         4537.324     1.094485E-7
         4541.371     1.093982E-7
         4545.422     1.071052E-7
         4549.479     1.047879E-7
         4553.539     9.874950E-8
           4557.6     9.211185E-8
         4561.668     8.723867E-8
         4565.734     8.496824E-8
         4569.809     8.267271E-8
         4573.887     9.119821E-8
         4577.967     1.003252E-7
         4582.053     1.113072E-7
         4586.142     1.241474E-7
         4590.233     1.372550E-7
         4594.327     1.532806E-7
         4598.425     1.694361E-7
         4602.529     2.300989E-7
         4606.637     3.190333E-7
         4610.746     4.658172E-7
          4614.86     8.731134E-7
         4618.979     1.283855E-6
         4623.097     2.544922E-6
         4627.223     4.098851E-6
          4631.35     7.125581E-6
         4635.483     1.320227E-5
         4639.621     1.932831E-5
         4643.759     4.003930E-5
           4647.9     6.239177E-5
         4652.046     1.092620E-4
         4656.198     1.816282E-4
         4660.354     2.648122E-4
         4664.511     4.591772E-4
         4668.673     6.551801E-4
          4672.84     9.497828E-4
         4677.005     0.001291784
          4681.18     0.001758273
         4685.355     0.002537262
         4689.537     0.003322928
         4693.722     0.004114786
         4697.909     0.004912316
         4702.102     0.005716598
         4706.293     0.006526157
         4710.493     0.007342951
         4714.697     0.008165975
         4718.902     0.008994739
         4723.114      0.01047341
          4727.33      0.01210236
         4731.543       0.0136629
         4735.766      0.01518415
          4739.99      0.01667491
         4744.221      0.01818524
         4748.455      0.01975155
          4752.69      0.02140551
         4756.932      0.02317872
         4761.172      0.02507491
         4765.421      0.02711945
         4769.674       0.0293095
         4773.929      0.03162665
         4778.189      0.03406681
         4782.454      0.03664196
         4786.719      0.03931062
         4790.989      0.04199938
         4795.262      0.04466885
         4799.542      0.04726672
         4803.826      0.04971436
          4808.11      0.05198546
         4812.401      0.05402212
         4816.696      0.05578981
         4820.993      0.05729291
         4825.292       0.0585266
         4829.597      0.05948608
         4833.907      0.06020933
         4838.221      0.06072325
         4842.537      0.06106148
         4846.855      0.06128445
         4851.179      0.06141477
         4855.508      0.06147642
         4859.842       0.0614963
         4864.177      0.06153133
         4868.518      0.06160287
         4872.863      0.06169978
         4877.209      0.06183277
          4881.56      0.06203054
         4885.914      0.06226986
         4890.277       0.0625946
         4894.639      0.06299556
         4899.004      0.06347264
         4903.376      0.06399726
         4907.748      0.06456207
          4912.13        0.065181
         4916.512      0.06582376
         4920.897       0.0664897
         4925.289      0.06720445
         4929.685       0.0679405
         4934.082      0.06865472
         4938.482      0.06937648
         4942.887      0.07006275
         4947.301      0.07070554
         4951.714      0.07134606
         4956.131      0.07191094
         4960.554      0.07246046
         4964.976       0.0729695
          4969.41      0.07341063
         4973.842      0.07381962
         4978.278      0.07417959
         4982.724      0.07449186
         4987.168       0.0747644
         4991.617      0.07499626
         4996.069      0.07521564
         5000.528      0.07543047
         5004.991       0.0756869
         5009.455      0.07595221
         5013.923      0.07622626
         5018.398      0.07652277
         5022.874      0.07682059
         5027.357      0.07714957
         5031.841      0.07748879
         5036.329      0.07786282
         5040.827      0.07833526
         5045.323      0.07884774
         5049.823      0.07936788
         5054.327      0.07993943
         5058.838      0.08056097
         5063.353      0.08122361
         5067.869      0.08191875
          5072.39      0.08265835
         5076.919      0.08343544
         5081.448      0.08422188
          5085.98      0.08501592
         5090.516      0.08582883
          5095.06      0.08666183
         5099.607      0.08748279
         5104.155      0.08828701
         5108.708      0.08905967
         5113.265      0.08978042
         5117.828      0.09044163
         5122.396      0.09103763
         5126.965      0.09158974
         5131.538      0.09209614
          5136.12      0.09249296
         5140.701      0.09280029
         5145.287      0.09303272
         5149.876      0.09320734
         5154.472      0.09328105
         5159.072      0.09325335
         5163.674      0.09318361
         5168.283      0.09303736
         5172.895      0.09279337
         5177.506      0.09249424
         5182.127      0.09210991
         5186.749      0.09170762
         5191.378      0.09133288
         5196.012      0.09095808
         5200.646      0.09055799
         5205.285      0.09013806
         5209.928      0.08969028
         5214.577      0.08922269
         5219.231      0.08883186
         5223.887      0.08852828
         5228.549      0.08827626
         5233.215      0.08809793
          5237.88      0.08796284
         5242.555      0.08789042
         5247.231      0.08784119
         5251.914      0.08783706
         5256.601       0.0878701
          5261.29       0.0879982
         5265.985      0.08826363
          5270.68      0.08865629
         5275.383      0.08913916
         5280.092      0.08971127
         5284.801      0.09029858
         5289.518      0.09090316
         5294.239      0.09157504
         5298.958      0.09230294
         5303.687      0.09314536
         5308.418      0.09408997
         5313.155      0.09511594
         5317.897      0.09621996
         5322.641      0.09734827
         5327.391      0.09844439
          5332.14       0.0995208
         5336.899       0.1006734
         5341.662       0.1018201
         5346.426       0.1029676
         5351.198         0.10412
         5355.974       0.1052842
         5360.751       0.1064364
         5365.532       0.1074737
         5370.318       0.1084966
         5375.111        0.109421
         5379.908       0.1102541
         5384.707       0.1110391
         5389.513       0.1117424
         5394.323       0.1123606
         5399.131       0.1129051
          5403.95       0.1133648
          5408.77       0.1137495
         5413.597       0.1140329
         5418.429       0.1142468
         5423.262       0.1144517
         5428.099       0.1145955
          5432.94       0.1146876
         5437.792       0.1146888
         5442.643       0.1146811
         5447.497       0.1146473
         5452.359       0.1145962
         5457.225       0.1145025
         5462.092       0.1144811
         5466.964       0.1144781
          5471.84       0.1144599
         5476.724       0.1145194
         5481.612        0.114627
         5486.501        0.114723
         5491.398       0.1148968
         5496.293       0.1150963
         5501.198       0.1153209
         5506.108       0.1156144
         5511.019       0.1160077
         5515.938       0.1164136
          5520.86       0.1169187
         5525.785       0.1174733
         5530.713       0.1180609
         5535.646       0.1186984
         5540.587       0.1193464
         5545.532       0.1200273
         5550.478       0.1207216
         5555.432       0.1215158
         5560.387       0.1223125
         5565.347       0.1230761
         5570.313        0.123901
         5575.282       0.1246607
         5580.258       0.1253891
         5585.238       0.1260635
          5590.22       0.1266941
         5595.206        0.127303
         5600.197       0.1278423
         5605.198       0.1281791
         5610.197       0.1284481
         5615.201       0.1286334
         5620.213       0.1286991
         5625.226       0.1287094
         5630.246       0.1286262
         5635.268       0.1284523
         5640.294       0.1282202
         5645.328       0.1278794
         5650.367       0.1274607
         5655.406       0.1269944
         5660.451       0.1264769
         5665.502       0.1258993
         5670.559       0.1252943
         5675.617       0.1246593
         5680.679       0.1239419
         5685.752       0.1232037
         5690.823       0.1224786
         5695.899       0.1220391
         5700.979       0.1216151
         5706.064       0.1210219
          5711.16       0.1204865
         5716.254       0.1200043
         5721.353       0.1195029
         5726.456         0.11901
         5731.567       0.1185925
         5736.682       0.1182198
         5741.799       0.1179293
          5746.92       0.1177061
         5752.053       0.1176521
         5757.183       0.1176638
         5762.318       0.1177764
         5767.458       0.1179665
         5772.602       0.1181651
         5777.757       0.1184027
         5782.911       0.1187306
         5788.068       0.1191358
         5793.237       0.1196155
         5798.401        0.120209
         5803.577       0.1208906
         5808.753       0.1216642
         5813.937       0.1225031
         5819.126       0.1233656
         5824.316        0.124186
         5829.511       0.1250423
         5834.711       0.1259531
         5839.918       0.1269122
          5845.13       0.1279316
         5850.344       0.1288975
         5855.562        0.129867
         5860.792       0.1308488
         5866.016       0.1317659
         5871.251       0.1326142
         5876.488       0.1334957
         5881.732       0.1342941
         5886.982       0.1350949
         5892.232       0.1358072
         5897.491       0.1364901
         5902.749       0.1370607
         5908.017       0.1375939
          5913.29       0.1380278
         5918.563       0.1383562
         5923.846       0.1386461
         5929.133       0.1388241
         5934.421       0.1389529
         5939.714       0.1390694
         5945.012       0.1390996
         5950.318       0.1390495
         5955.629       0.1389843
         5960.941       0.1388553
         5966.258       0.1387352
         5971.579       0.1385666
         5976.909       0.1383472
         5982.243       0.1381242
         5987.579       0.1379157
         5992.923       0.1376912
         5998.271        0.137498
         6003.622       0.1372876
         6008.976       0.1370338
         6014.336       0.1368097
         6019.704       0.1365495
         6025.076       0.1363245
          6030.45       0.1361069
         6035.832       0.1359364
         6041.219       0.1358292
         6046.604       0.1358418
         6052.001       0.1358924
         6057.399       0.1359978
         6062.805       0.1362211
         6068.216       0.1364099
         6073.628       0.1365801
         6079.046       0.1368229
         6084.468       0.1370899
         6089.898       0.1373044
         6095.333       0.1376555
          6100.77       0.1380896
         6106.215       0.1384645
         6111.665       0.1389132
         6117.112       0.1393747
         6122.572       0.1398332
         6128.033       0.1402415
         6133.502         0.14064
         6138.976       0.1410534
         6144.452       0.1414365
         6149.936       0.1417992
         6155.417       0.1421105
         6160.911       0.1424473
          6166.41       0.1426784
          6171.91         0.14285
         6177.418       0.1430013
         6182.932       0.1430648
         6188.443       0.1430874
         6193.966       0.1430584
         6199.491       0.1429676
         6205.024       0.1428757
         6210.562       0.1427105
         6216.101       0.1424963
         6221.649        0.142211
         6227.195       0.1418604
         6232.756        0.141534
         6238.315       0.1411433
         6243.879       0.1407209
         6249.452       0.1402734
         6255.029       0.1397708
         6260.608       0.1392722
         6266.193       0.1388142
         6271.782       0.1383042
         6277.379       0.1377767
         6282.982       0.1373086
         6288.586       0.1368732
         6294.198          0.1364
         6299.809       0.1359546
         6305.435       0.1355565
         6311.059       0.1351676
         6316.688       0.1348114
         6322.326       0.1345194
         6327.968       0.1343287
         6333.612       0.1341233
         6339.262       0.1340329
         6344.916       0.1339634
         6350.579       0.1339311
         6356.247       0.1339275
         6361.916        0.133926
         6367.594       0.1340303
         6373.277       0.1341506
         6378.961       0.1343581
         6384.651       0.1346004
         6390.346       0.1348727
         6396.049       0.1351869
         6401.757       0.1355667
         6407.467       0.1359621
         6413.183       0.1363474
         6418.906       0.1367214
         6424.631       0.1371049
         6430.365       0.1374457
         6436.104       0.1378568
         6441.845       0.1383204
         6447.594       0.1387391
         6453.345       0.1391335
         6459.101        0.139553
         6464.866       0.1399426
         6470.632       0.1402429
         6476.407       0.1405656
         6482.184       0.1408343
         6487.969       0.1409689
         6493.756          0.1411
         6499.548       0.1412183
         6505.349       0.1411266
         6511.154       0.1409387
         6516.962       0.1406484
         6522.778       0.1400072
         6528.596       0.1394587
         6534.419       0.1395213
         6540.251       0.1393537
         6546.088       0.1388357
         6551.927       0.1383604
         6557.771       0.1378404
         6563.624        0.137324
         6569.478        0.136757
         6575.341       0.1361616
         6581.206       0.1355396
          6587.08       0.1348897
         6592.955       0.1343171
         6598.839       0.1337272
         6604.729       0.1331938
         6610.616       0.1327221
         6616.516       0.1322715
         6622.421       0.1318142
         6628.328       0.1314225
         6634.244       0.1310258
         6640.165       0.1305906
         6646.087       0.1302542
         6652.015       0.1299152
         6657.948       0.1296287
         6663.891       0.1294134
         6669.838       0.1292385
         6675.787       0.1291851
         6681.745       0.1291696
         6687.701       0.1292135
          6693.67       0.1292531
         6699.644        0.129298
          6705.62       0.1293488
         6711.604       0.1294012
         6717.594        0.129453
         6723.586        0.129452
         6729.583        0.129516
         6735.585       0.1295251
         6741.597       0.1294432
         6747.613       0.1293089
         6753.632       0.1291168
          6759.66       0.1288262
         6765.692       0.1284379
         6771.723       0.1279207
         6777.767       0.1272631
         6783.813       0.1265116
         6789.867       0.1255717
         6795.927       0.1244684
         6801.988       0.1231786
         6808.055       0.1217127
         6814.127       0.1200189
         6820.209       0.1181408
         6826.296       0.1161288
         6832.385       0.1139436
         6838.482       0.1116965
         6844.586       0.1094605
         6850.687       0.1071867
         6856.801       0.1047813
         6862.917       0.1023651
         6869.042      0.09981151
         6875.173      0.09729061
         6881.305      0.09471866
         6887.446      0.09213369
         6893.586      0.08960576
         6899.738      0.08711515
         6905.896      0.08470526
         6912.056      0.08240277
         6918.225      0.08032157
         6924.399      0.07838388
         6930.572      0.07663385
         6936.757      0.07508245
         6942.944      0.07361939
         6949.141      0.07226122
         6955.343      0.07100975
         6961.546      0.06985562
          6967.76      0.06873839
         6973.971      0.06778562
         6980.195       0.0670514
         6986.424      0.06652596
         6992.656       0.0662673
         6998.897      0.06623629
         7005.143      0.06646729
         7011.392       0.0669541
         7017.645      0.06766508
         7023.904      0.06861969
         7030.173      0.06975958
         7036.448      0.07111423
         7042.724      0.07271729
         7049.009        0.074606
         7055.292       0.0768526
         7061.589      0.07949419
         7067.892      0.08262515
         7074.196      0.08630165
          7080.51      0.09032006
         7086.829      0.09464473
          7093.15      0.09898411
         7099.477       0.1030544
         7105.809       0.1065149
         7112.151       0.1089484
         7118.498       0.1098249
         7124.848       0.1088478
         7131.207       0.1054621
         7137.571      0.09972579
         7143.933      0.09192999
         7150.309      0.08262882
         7156.687      0.07253393
         7163.074      0.06255232
         7169.467      0.05322648
         7175.862      0.04499605
         7182.262      0.03785393
         7188.668      0.03169937
         7195.084      0.02653649
         7201.506      0.02221452
         7207.929      0.01865194
         7214.362      0.01571669
         7220.801      0.01331104
         7227.237      0.01131433
         7233.688     0.009649392
         7240.144     0.008265916
         7246.601     0.007122225
         7253.069      0.00615395
         7259.538     0.005331391
         7266.017     0.004632149
         7272.498     0.004028351
         7278.989     0.003522216
         7285.481     0.003086193
         7291.979     0.002565856
         7298.487     0.002279368
         7305.001     0.002036197
         7311.517     0.001816579
         7318.038     0.001629441
         7324.569     0.001465256
         7331.103     0.001315748
         7337.646     0.001187881
          7344.19     0.001094735
         7350.745      0.00101869
         7357.301     9.245680E-4
         7363.867     8.391879E-4
         7370.436     7.608592E-4
         7377.014     6.939607E-4
         7383.593     6.329519E-4
         7390.183     5.770093E-4
         7396.775     5.293838E-4
         7403.372     4.854047E-4
         7409.979     4.448667E-4
         7416.589     4.098462E-4
         7423.208     3.770838E-4
         7429.829     3.467156E-4
          7436.46     3.201822E-4
         7443.097     2.954896E-4
         7449.736     2.727677E-4
         7456.381     2.528757E-4
         7463.036     2.343193E-4
         7469.692     2.172168E-4
         7476.359     2.022913E-4
         7483.027     1.883406E-4
         7489.702     1.754054E-4
         7496.386     1.639256E-4
         7503.077     1.531185E-4
         7509.769     1.430162E-4
         7516.471     1.337854E-4
         7523.175     1.251047E-4
          7529.89     1.169811E-4
         7536.606     1.096759E-4
         7543.328     1.028414E-4
         7550.061     9.647140E-5
         7556.794     9.080122E-5
         7563.539     8.543898E-5
          7570.29     8.038116E-5
         7577.042     7.582193E-5
           7583.8     7.151437E-5
         7590.568     6.743740E-5
         7597.339     6.374769E-5
         7604.119     6.030054E-5
         7610.906     5.705490E-5
         7617.694     5.407613E-5
         7624.489     5.125574E-5
          7631.29     4.857009E-5
           7638.1     4.609678E-5
         7644.917     4.378194E-5
         7651.736     4.157849E-5
         7658.565     3.950701E-5
         7665.396     3.760579E-5
         7672.233     3.579953E-5
         7679.081     3.408978E-5
          7685.93     3.252994E-5
          7692.79     3.106452E-5
         7699.655     2.970233E-5
         7706.523     2.837770E-5
         7713.401     2.710967E-5
         7720.276     2.590312E-5
         7727.167     2.478378E-5
         7734.063     2.371724E-5
         7740.961     2.269986E-5
          7747.87     2.175014E-5
         7754.785     2.086837E-5
         7761.697     2.003968E-5
         7768.625     1.927350E-5
         7775.554     1.852648E-5
         7782.494     1.778891E-5
         7789.439     1.705940E-5
         7796.387     1.640547E-5
         7803.345     1.578388E-5
         7810.301     1.519318E-5
         7817.271     1.465020E-5
         7824.249     1.412107E-5
         7831.227     1.360325E-5
         7838.216     1.309287E-5
         7845.212     1.260285E-5
         7852.209     1.212554E-5
         7859.213     1.165896E-5
         7866.223     1.119509E-5
         7873.244     1.074699E-5
         7880.271     1.031943E-5
         7887.299     9.955311E-6
         7894.338     9.589588E-6
         7901.375     9.236504E-6
         7908.427     8.935452E-6
         7915.485     8.644985E-6
         7922.545     8.352798E-6
         7929.616     8.051322E-6
         7936.693     7.797426E-6
         7943.772     7.584855E-6
         7950.858     7.410513E-6
          7957.95     7.270507E-6
         7965.052     7.203635E-6
         7972.161     7.182562E-6
         7979.271     7.198457E-6
         7986.393     7.124496E-6
         7993.521     6.549382E-6
         8000.646     5.568118E-6
         8007.786     5.502186E-6
         8014.929     5.515059E-6
         8022.082     5.585802E-6
         8029.242     5.711773E-6
         8036.403     5.706741E-6
         8043.576     5.773567E-6
         8050.746     5.885541E-6
         8057.931     5.642484E-6
         8065.123     5.151615E-6
         8072.316     4.740460E-6
         8079.521     4.700387E-6
         8086.731     4.571721E-6
          8093.94     4.257286E-6
         8101.164     3.848135E-6
         8108.389     3.713031E-6
         8115.626     3.703550E-6
         8122.869     3.712573E-6
         8130.114     3.702339E-6
          8137.37     4.104742E-6
         8144.628     4.521656E-6
         8151.893     4.732378E-6
         8159.168     4.340494E-6
         8166.446     4.099038E-6
         8173.734     3.949215E-6
         8181.029     3.802657E-6
         8188.326     3.263807E-6
          8195.63     2.937289E-6
         8202.939     2.934012E-6
         8210.261     3.305743E-6
         8217.588     3.462847E-6
         8224.918     3.387898E-6
         8232.259     3.179019E-6
         8239.602     2.922747E-6
          8246.95     2.932476E-6
         8254.311     3.157605E-6
         8261.673     3.431566E-6
         8269.047     3.399571E-6
         8276.427     3.142891E-6
         8283.809     3.047214E-6
         8291.197     3.147779E-6
         8298.597     3.333732E-6
         8305.999     3.317954E-6
         8313.412     3.109727E-6
         8320.827     2.745904E-6
         8328.253     2.482939E-6
         8335.687     2.355482E-6
         8343.121     2.275441E-6
         8350.563     2.216563E-6
         8358.011     2.314751E-6
         8365.471     2.452997E-6
         8372.937     2.574393E-6
         8380.409     2.641144E-6
         8387.879     2.594815E-6
         8395.365     2.660579E-6
         8402.854     2.819231E-6
         8410.353     3.045368E-6
         8417.859     3.038257E-6
         8425.367     2.845031E-6
         8432.887     2.646634E-6
         8440.408     2.564977E-6
         8447.937     2.597762E-6
         8455.477     2.376326E-6
         8463.019     2.150290E-6
         8470.571     2.072388E-6
         8478.127     2.154147E-6
         8485.693     2.221914E-6
         8493.262     2.331754E-6
         8500.842     2.502286E-6
         8508.425     2.666563E-6
         8516.019     2.818039E-6
         8523.614     2.935106E-6
         8531.221     2.997002E-6
          8538.83     2.947862E-6
         8546.446     2.678775E-6
         8554.074     2.403257E-6
         8561.704     2.216532E-6
         8569.345     2.235952E-6
         8576.993     2.312486E-6
         8584.644     2.406436E-6
         8592.301     2.510999E-6
         8599.969     2.622076E-6
          8607.64     2.848832E-6
         8615.321     2.890265E-6
         8623.006     2.792173E-6
         8630.702     2.625339E-6
         8638.405     2.660930E-6
         8646.105     2.698254E-6
         8653.821     2.749173E-6
          8661.54     2.776167E-6
         8669.271     2.654937E-6
         8677.008     2.490889E-6
         8684.747     2.371016E-6
         8692.493     2.264268E-6
         8700.251     2.127764E-6
         8708.012     2.180351E-6
         8715.783     2.295655E-6
         8723.563     2.305227E-6
         8731.343     2.123272E-6
         8739.136     1.739581E-6
         8746.926     1.483269E-6
         8754.732     1.230587E-6
         8762.546     9.777069E-7
         8770.361     7.536868E-7
         8778.188     8.038036E-7
         8786.019     8.254003E-7
         8793.859     8.057320E-7
         8801.703     7.440801E-7
         8809.554     6.520009E-7
         8817.416     6.657014E-7
         8825.286     7.029058E-7
         8833.157     6.868137E-7
         8841.041     5.677298E-7
         8848.922     3.721006E-7
         8856.819     1.849523E-7
         8864.724     1.336382E-7
         8872.631     2.178289E-7
          8880.55     3.807664E-7
         8888.476     3.790788E-7
         8896.403     2.043145E-7
         8904.338     9.532722E-8
          8912.28     1.630982E-7
         8920.234     4.432619E-7
         8928.195     4.911001E-7
         8936.159     3.562401E-7
         8944.135     2.627871E-7
         8952.117     2.459325E-7
         8960.097     2.015090E-7
         8968.094     2.283526E-7
         8976.093     3.706550E-7
         8984.104     4.010980E-7
         8992.122     2.627569E-7
         9000.143     4.679701E-8
         9008.175     2.279876E-8
         9016.205     2.434962E-8
         9024.252     4.431375E-8
         9032.306     8.907526E-8
         9040.362     1.676246E-7
         9048.431     1.735201E-7
         9056.506     1.163255E-7
         9064.579     6.397482E-8
         9072.669     4.155888E-8
         9080.761     5.145022E-8
         9088.865     8.205249E-8
         9096.978     6.634472E-8
         9105.092     4.593387E-8
         9113.218     3.598181E-8
         9121.341     3.738907E-8
         9129.481     2.877260E-8
          9137.63     2.462034E-8
          9145.78     3.843175E-8
         9153.942     7.115838E-8
         9162.112     1.131317E-7
         9170.284     1.495370E-7
         9178.464     2.816121E-7
         9186.655     2.857740E-7
         9194.849     2.045348E-7
         9203.056     1.126912E-7
         9211.264     7.318368E-8
         9219.485     6.644684E-8
         9227.708     8.976663E-8
         9235.938     9.768623E-8
         9244.182     6.570033E-8
         9252.427     1.812725E-8
         9260.685     9.911356E-9
         9268.949     1.135244E-8
         9277.217     3.447640E-8
         9285.492     1.113014E-7
         9293.779     1.538049E-7
         9302.068     1.274536E-7
          9310.37     1.093471E-7
         9318.675     1.889812E-7
         9326.991     2.268491E-7
         9335.315     2.095711E-7
         9343.637     2.025554E-7
         9351.977     2.663460E-7
         9360.317     4.065401E-7
         9368.672     5.300138E-7
         9377.033     4.627953E-7
         9385.396     3.280023E-7
         9393.768     2.261808E-7
         9402.152     1.795884E-7
         9410.538     1.247035E-7
         9418.937     1.634154E-7
         9427.338     1.990378E-7
         9435.752     1.464612E-7
         9444.173     9.103437E-8
         9452.592     9.374715E-8
         9461.028     1.531593E-7
         9469.472     2.834310E-7
         9477.918     2.668571E-7
         9486.377     2.246261E-7
         9494.838     2.251848E-7
         9503.313     2.935563E-7
         9511.788     4.038302E-7
         9520.272     4.764742E-7
          9528.77     3.320591E-7
         9537.269     1.978174E-7
          9545.78     1.977015E-7
           9554.3     3.016187E-7
         9562.821     4.119732E-7
         9571.351     4.491640E-7
         9579.894     4.611927E-7
         9588.438     3.676623E-7
         9596.995     3.693607E-7
         9605.561     4.545621E-7
         9614.128     4.778244E-7
         9622.704     4.460105E-7
         9631.286     5.135538E-7
         9639.882     5.998683E-7
         9648.485     4.904875E-7
         9657.092     4.375381E-7
         9665.711     4.734682E-7
         9674.332     5.414028E-7
         9682.961     5.739716E-7
         9691.603     5.440368E-7
         9700.252     4.831749E-7
         9708.904     4.462927E-7
         9717.569     4.095603E-7
         9726.237     3.701463E-7
         9734.912     3.514188E-7
         9743.601     3.342780E-7
         9752.291     2.827200E-7
         9760.995     2.037179E-7
         9769.701     2.097688E-7
         9778.421     2.561194E-7
         9787.147     2.505090E-7
         9795.872     2.528801E-7
         9804.614     2.724095E-7
         9813.359     2.841964E-7
         9822.118     2.778222E-7
         9830.884     2.828180E-7
         9839.652     2.623700E-7
         9848.435     2.557570E-7
         9857.219     2.346130E-7
         9866.011     2.057571E-7
         9874.816     1.797635E-7
         9883.624     1.698206E-7
         9892.444     1.846636E-7
         9901.273     2.115699E-7
         9910.104     1.920443E-7
         9918.944     2.331830E-7
         9927.791     2.542762E-7
         9936.651     2.538386E-7
         9945.521     2.643434E-7
         9954.391     2.459666E-7
         9963.275     1.887667E-7
         9972.162     1.456942E-7
         9981.057     1.485950E-7
         9989.964     1.570767E-7
          9998.88     1.292196E-7
          10007.8     1.037261E-7
         10016.72     1.036885E-7
         10025.67     1.169920E-7
          10034.6     1.221240E-7
         10043.56     1.181412E-7
         10052.52     1.074165E-7
         10061.49     7.855655E-8
         10070.47     6.346599E-8
         10079.46     6.296721E-8
         10088.45     6.379799E-8
         10097.44     9.402505E-8
         10106.46     1.122826E-7
         10115.48     9.836856E-8
          10124.5     6.450362E-8
         10133.53     4.369195E-8
         10142.58     5.136874E-8
         10151.62     6.248877E-8
         10160.68     6.107982E-8
         10169.74     6.867212E-8
         10178.81     8.309375E-8
          10187.9     8.360607E-8
         10196.99     6.481916E-8
         10206.08     5.663757E-8
         10215.19     6.260521E-8
         10224.31     7.554816E-8
         10233.43     8.770159E-8
         10242.56     8.697594E-8
         10251.69     6.958254E-8
         10260.85     6.763322E-8
           10270.     8.208543E-8
         10279.16     8.402454E-8
         10288.33     8.529060E-8
         10297.51     8.984473E-8
          10306.7     8.017881E-8
         10315.89     6.899968E-8
          10325.1     6.964243E-8
          10334.3     7.098441E-8
         10343.53     6.571825E-8
         10352.76     6.511247E-8
         10361.99     7.024024E-8
         10371.25     6.747376E-8
          10380.5     5.527467E-8
         10389.76     4.514077E-8
         10399.02     4.531129E-8
          10408.3     4.961972E-8
         10417.59     4.698822E-8
         10426.89     4.497307E-8
         10436.19     4.344244E-8
         10445.49     3.781777E-8
         10454.82     3.450377E-8
         10464.15     3.779882E-8
         10473.48     4.178711E-8
         10482.82     4.092399E-8
         10492.17     3.642758E-8
         10501.54     3.302795E-8
         10510.91     3.605112E-8
         10520.29     3.932455E-8
         10529.67     3.750323E-8
         10539.07     3.363483E-8
         10548.47     2.870415E-8
         10557.88     2.505451E-8
         10567.31     2.587142E-8
         10576.73     2.779782E-8
         10586.17     2.902725E-8
         10595.61     2.909163E-8
         10605.06     2.696515E-8
         10614.53     2.405515E-8
           10624.     2.330069E-8
         10633.48     2.572796E-8
         10642.96     2.864092E-8
         10652.45     2.742258E-8
         10661.97     2.472806E-8
         10671.48     2.615356E-8
         10680.99     2.636028E-8
         10690.53     2.337311E-8
         10700.07     2.182067E-8
         10709.61     2.248881E-8
         10719.16     2.377954E-8
         10728.72     2.683426E-8
         10738.31     2.739092E-8
         10747.88     2.431107E-8
         10757.47     2.178790E-8
         10767.08     2.143496E-8
         10776.67     2.194934E-8
         10786.29     2.154014E-8
         10795.91     2.040998E-8
         10805.54     2.039999E-8
         10815.18     2.134358E-8
         10824.83     2.159324E-8
         10834.49     2.134403E-8
         10844.17     2.150539E-8
         10853.84     2.196899E-8
         10863.52     2.265792E-8
         10873.21     2.271610E-8
         10882.91     2.113087E-8
         10892.63     1.941205E-8
         10902.35     1.799321E-8
         10912.07     1.601393E-8
         10921.81     1.531987E-8
         10931.54     1.568618E-8
         10941.31     1.505380E-8
         10951.07     1.455299E-8
         10960.83     1.752991E-8
         10970.62     1.075783E-7
         10980.39     9.979610E-7
          10990.2     3.244587E-6
           11000.     2.989717E-6
