#  Table pcf675wsys.tab  Mon 12:21:19 02-Jun-97

#      WAVELENGTH      THROUGHPUT
#       angstroms                

            1850.     4.586983E-6
         1851.651     3.856110E-6
         1853.301     3.118666E-6
         1854.956     2.372474E-6
         1856.611     1.619916E-6
         1858.267     8.599086E-7
         1859.925     9.195951E-8
         1861.584     8.335456E-8
         1863.246     1.110114E-7
         1864.909     1.389397E-7
         1866.572     1.671199E-7
         1868.237     1.955738E-7
         1869.904     2.243178E-7
         1871.573     4.490695E-7
         1873.242     6.879042E-7
         1874.913     9.290666E-7
         1876.585     1.172586E-6
          1878.26     1.418655E-6
         1879.937     1.666448E-6
         1881.613     1.815078E-6
         1883.292     1.960976E-6
         1884.973     2.108156E-6
         1886.654     2.256453E-6
         1888.338     2.406054E-6
         1890.023     2.552527E-6
         1891.709     2.384598E-6
         1893.396     2.215147E-6
         1895.086     2.044080E-6
         1896.775     1.871704E-6
         1898.469     1.697474E-6
         1900.163     1.522709E-6
         1901.857     1.355167E-6
         1903.555     1.185919E-6
         1905.254     1.015164E-6
         1906.953     8.430223E-7
         1908.655     6.692649E-7
         1910.357     5.268042E-7
         1912.061     5.068597E-7
         1913.768     4.867164E-7
         1915.476     4.663838E-7
         1917.184     4.458746E-7
         1918.894     4.251748E-7
         1920.606     3.918750E-7
          1922.32     3.354739E-7
         1924.035     2.785740E-7
         1925.752     2.212027E-7
          1927.47     1.632968E-7
         1929.189     1.049165E-7
          1930.91     1.035341E-7
         1932.634     1.536274E-7
         1934.358     2.041513E-7
         1936.084     2.550748E-7
         1937.811     3.064384E-7
          1939.54     3.582695E-7
          1941.27     3.262633E-7
         1943.003     2.632744E-7
         1944.737     1.997283E-7
          1946.47     1.357047E-7
         1948.207     7.104387E-8
         1949.947     5.783698E-9
         1951.685     1.106613E-7
         1953.427     2.219688E-7
         1955.171     3.342335E-7
         1956.913     4.473231E-7
          1958.66     5.615179E-7
         1960.408     6.246905E-7
         1962.157     5.168735E-7
         1963.908     4.080367E-7
         1965.658     2.983828E-7
         1967.413     1.876410E-7
         1969.169     7.593006E-8
         1970.925     2.108974E-8
         1972.684     1.792447E-8
         1974.444     1.473326E-8
         1976.205     1.151408E-8
         1977.969     8.262973E-9
         1979.734     4.987516E-9
           1981.5     6.401231E-9
         1983.268     8.669890E-9
         1985.037     1.095656E-8
         1986.809     1.326384E-8
         1988.581     1.558907E-8
         1990.355     1.699658E-8
         1992.131     1.465175E-8
         1993.908     1.228646E-8
         1995.688     9.897689E-9
         1997.467     7.492760E-9
          1999.25     5.064201E-9
         2001.034     1.025204E-8
         2002.818     2.104787E-8
         2004.606     3.197029E-8
         2006.396     4.299390E-8
         2008.184     5.411070E-8
         2009.976     6.534928E-8
         2011.769     9.983722E-8
         2013.565     1.349932E-7
         2015.362     1.704939E-7
         2017.158     2.062948E-7
         2018.958     2.424849E-7
          2020.76     2.450556E-7
         2022.563     2.008985E-7
         2024.368     1.562740E-7
         2026.173     1.112405E-7
         2027.982     6.573486E-8
         2029.791     1.981328E-8
         2031.602     1.454524E-8
         2033.414     1.462799E-8
         2035.228     1.471109E-8
         2037.044     1.479459E-8
         2038.861     1.487840E-8
         2040.681     2.233501E-8
         2042.502     4.225616E-8
         2044.324     6.235500E-8
         2046.147     8.264168E-8
         2047.974     1.031322E-7
           2049.8     1.238014E-7
          2051.63     1.196305E-7
         2053.461     1.123318E-7
         2055.291     1.049699E-7
         2057.125     9.752781E-8
         2058.961     9.001295E-8
         2060.798     7.954947E-8
         2062.637     6.520835E-8
         2064.477     5.074243E-8
         2066.318     3.614347E-8
         2068.164     2.139129E-8
         2070.007     6.603371E-9
         2071.855     1.074050E-8
         2073.704     1.491434E-8
         2075.553     1.912282E-8
         2077.405     2.336829E-8
         2079.259     2.765490E-8
         2081.113     2.836358E-8
         2082.971     2.665996E-8
         2084.829     2.494174E-8
         2086.688     2.320796E-8
          2088.55     2.145718E-8
         2090.414     2.859185E-8
         2092.279     6.706239E-8
         2094.145     1.058524E-7
         2096.014     1.450041E-7
         2097.885     1.844837E-7
         2099.756     2.242716E-7
          2101.63     1.937909E-7
         2103.503     1.524714E-7
         2105.381     1.107600E-7
          2107.26     6.869272E-8
         2109.139     2.630085E-8
         2111.022     9.455063E-9
         2112.906     1.440231E-8
         2114.789     1.938276E-8
         2116.677     2.440952E-8
         2118.564     2.947302E-8
         2120.455     3.226952E-8
         2122.348     2.777160E-8
         2124.241     2.324178E-8
         2126.135     1.867584E-8
         2128.033     1.407184E-8
         2129.932     9.431354E-9
         2131.832     1.012584E-8
         2133.734     1.102436E-8
         2135.637     1.192926E-8
         2137.544     1.284183E-8
          2139.45     1.376289E-8
         2141.359     1.680564E-8
          2143.27     2.073253E-8
         2145.182     2.468708E-8
         2147.096     2.867347E-8
         2149.011     3.268725E-8
         2150.929     3.666797E-8
         2152.848     4.060469E-8
         2154.768     4.456933E-8
         2156.692     4.856713E-8
         2158.615     5.258548E-8
         2160.541     5.307964E-8
         2162.469     4.443498E-8
         2164.397     3.574167E-8
          2166.33     2.697188E-8
         2168.263     1.814629E-8
         2170.196     1.009008E-8
         2172.133     9.246999E-9
          2174.07     8.399093E-9
         2176.011     7.545057E-9
         2177.953     6.685507E-9
         2179.895     5.821073E-9
          2181.84     6.890812E-9
         2183.787     8.078337E-9
         2185.735     9.272179E-9
         2187.686     1.047356E-8
         2189.637     1.168116E-8
          2191.59     1.830485E-8
         2193.546     2.620874E-8
         2195.503     3.415387E-8
         2197.462     4.213738E-8
         2199.423     5.016937E-8
         2201.385     4.627364E-8
         2203.348     3.726819E-8
         2205.315     2.810348E-8
         2207.283     1.878536E-8
         2209.252     9.318954E-9
         2211.222     7.536677E-9
         2213.196     1.056662E-8
          2215.17     1.364124E-8
         2217.147     1.676533E-8
         2219.125     1.993688E-8
         2221.104     2.711144E-8
         2223.086     3.757031E-8
         2225.071     4.819151E-8
         2227.055     5.894938E-8
         2229.042     6.987766E-8
         2231.031     6.822137E-8
         2233.021     5.460661E-8
         2235.015     4.077160E-8
         2237.008     2.674924E-8
         2239.003     1.251998E-8
         2241.002     6.842932E-9
         2242.999     9.867890E-9
         2245.002     1.294015E-8
         2247.005     1.605097E-8
         2249.009     1.920426E-8
         2251.016     2.155482E-8
         2253.024     2.310356E-8
         2255.033     2.467154E-8
         2257.046     2.626001E-8
         2259.061     2.786790E-8
         2261.075     2.623392E-8
         2263.092     2.170927E-8
         2265.112     1.712125E-8
         2267.134     1.247231E-8
         2269.156     7.765586E-9
         2271.181     6.458433E-9
         2273.207     7.625964E-9
         2275.234     8.807749E-9
         2277.266     1.000530E-8
         2279.296     1.121478E-8
          2281.33     1.372454E-8
         2283.366     1.694774E-8
         2285.402     2.020542E-8
         2287.441     2.350555E-8
         2289.483     2.684402E-8
         2291.525     3.382193E-8
          2293.57     4.211549E-8
         2295.615     5.049394E-8
         2297.663     5.899490E-8
         2299.715     6.760681E-8
         2301.765     7.581747E-8
          2303.82     8.405640E-8
         2305.876     9.239046E-8
         2307.932     1.008150E-7
         2309.992     1.093416E-7
         2312.051     1.245401E-7
         2314.116     1.399659E-7
          2316.18     1.555497E-7
         2318.246     1.713065E-7
         2320.315     1.815247E-7
         2322.385     1.597683E-7
         2324.457     1.377384E-7
         2326.531     1.154624E-7
         2328.606     9.292362E-8
         2330.685     7.308252E-8
         2332.764     5.914928E-8
         2334.845     4.505413E-8
         2336.927     3.079967E-8
         2339.012     1.638352E-8
         2341.101     9.242918E-9
         2343.188     8.757535E-9
         2345.279     8.266367E-9
         2347.372     7.769152E-9
         2349.467     7.266206E-9
         2351.562     9.158051E-9
         2353.661     1.189571E-8
         2355.759     1.465834E-8
         2357.862     1.745345E-8
         2359.966     2.027731E-8
         2362.071     1.770963E-8
         2364.179     1.502296E-8
         2366.288     1.230963E-8
         2368.398     9.567642E-9
         2370.512     8.024600E-9
         2372.628     1.033286E-8
         2374.744     1.266252E-8
         2376.863     1.501662E-8
         2378.983     1.739254E-8
         2381.105     2.057670E-8
          2383.23     2.452054E-8
         2385.357     2.850191E-8
         2387.485     3.251911E-8
         2389.615     3.657408E-8
         2391.747     4.202017E-8
         2393.881     4.781245E-8
         2396.017     5.366182E-8
         2398.154     5.956111E-8
         2400.293     6.333924E-8
         2402.435     5.337758E-8
          2404.58     4.332077E-8
         2406.724     3.317655E-8
         2408.872     2.293186E-8
         2411.022     1.666823E-8
         2413.171     1.486835E-8
         2415.326     1.304853E-8
         2417.479     1.121552E-8
         2419.637     9.363220E-9
         2421.796     9.320662E-9
         2423.957     9.648147E-9
          2426.12     9.978431E-9
         2428.284     1.031110E-8
         2430.451     1.420031E-8
         2432.619     3.170240E-8
         2434.789     4.935132E-8
         2436.962     6.716166E-8
         2439.136     8.512004E-8
         2441.312     8.187787E-8
          2443.49     6.449920E-8
          2445.67     4.696375E-8
         2447.853     2.927869E-8
         2450.036     1.174708E-8
         2452.222     1.112031E-8
         2454.409     1.048813E-8
           2456.6     9.850114E-9
         2458.792     9.206715E-9
         2460.985     8.864331E-9
          2463.18     8.896026E-9
         2465.379     8.927801E-9
         2467.579     8.959626E-9
         2469.778     8.991469E-9
         2471.983     9.023183E-9
          2474.19     9.054944E-9
         2476.396     9.086707E-9
         2478.606     9.118564E-9
         2480.817     9.510559E-9
         2483.029     1.052282E-8
         2485.247     1.154415E-8
         2487.462     1.257132E-8
         2489.682     1.360750E-8
         2491.904     1.388517E-8
         2494.125     1.403602E-8
         2496.353     1.418804E-8
         2498.579     1.434076E-8
         2500.808     1.739871E-8
          2503.04     2.561225E-8
         2505.272     3.388339E-8
         2507.509     4.222409E-8
         2509.745     5.062185E-8
         2511.985     4.843108E-8
         2514.225     4.484882E-8
         2516.468     4.123766E-8
         2518.714     3.759588E-8
         2520.962     3.306704E-8
          2523.21     2.735448E-8
         2525.462     2.159373E-8
         2527.715     1.579213E-8
         2529.971     9.941979E-9
         2532.229     1.741216E-8
         2534.486     2.510675E-8
         2536.748     3.286918E-8
          2539.01     4.061935E-8
         2541.277     4.032521E-8
         2543.545     3.375613E-8
         2545.813     2.716405E-8
         2548.084     2.054552E-8
         2550.358     1.483109E-8
         2552.635     1.410190E-8
         2554.911     1.337020E-8
         2557.191     1.263488E-8
         2559.471     1.189738E-8
         2561.755     1.145903E-8
         2564.042     1.111035E-8
         2566.329     1.076033E-8
         2568.619     1.040863E-8
         2570.908     1.020227E-8
         2573.205     1.021817E-8
           2575.5     1.023398E-8
         2577.797     1.024974E-8
         2580.097     1.049530E-8
         2582.399     1.595032E-8
         2584.704     2.143096E-8
          2587.01     2.693251E-8
         2589.318     3.245314E-8
         2591.629     3.863983E-8
          2593.94     4.511751E-8
         2596.254     5.161979E-8
         2598.573     5.815621E-8
         2600.889     6.697558E-8
          2603.21     7.949886E-8
         2605.532     9.206362E-8
         2607.856     1.046788E-7
         2610.185     1.152016E-7
         2612.512     1.006997E-7
         2614.843     8.612075E-8
         2617.177     7.148004E-8
          2619.51     5.679627E-8
         2621.849     4.661418E-8
         2624.188     3.761793E-8
         2626.528     2.858455E-8
         2628.873     1.950754E-8
         2631.217     1.459492E-8
         2633.566     1.355686E-8
         2635.916     1.251435E-8
         2638.267     1.146795E-8
          2640.62     1.366671E-8
         2642.977     2.498143E-8
         2645.334     3.633630E-8
         2647.695     4.774407E-8
         2650.057     5.875571E-8
         2652.422     5.210493E-8
         2654.788     4.543016E-8
         2657.157     3.872258E-8
         2659.526     3.199474E-8
         2661.899     2.824795E-8
         2664.275     2.524007E-8
         2666.652     2.222106E-8
         2669.031     1.918758E-8
         2671.412     2.332656E-8
         2673.796     3.242758E-8
         2676.181     4.155957E-8
          2678.57     5.073450E-8
          2680.96     6.835722E-8
          2683.35     9.857680E-8
         2685.746     1.289736E-7
          2688.14     1.594388E-7
          2690.54     1.749350E-7
         2692.941     1.382178E-7
         2695.343     1.013657E-7
         2697.748     6.434196E-8
         2700.153     2.935009E-8
         2702.563     2.574541E-8
         2704.975     2.211462E-8
         2707.387     1.845953E-8
         2709.804     1.477524E-8
         2712.222     1.892368E-8
         2714.642     2.379468E-8
         2717.063     2.869963E-8
         2719.486     3.363964E-8
         2721.915     4.021230E-8
         2724.343     4.725177E-8
         2726.772     5.434070E-8
         2729.205     6.147923E-8
          2731.64     6.443238E-8
         2734.078     6.534140E-8
         2736.517     6.625514E-8
         2738.958     6.717406E-8
         2741.402     6.819320E-8
         2743.849     6.928871E-8
         2746.296     7.038990E-8
         2748.747     7.149830E-8
         2751.198     6.488105E-8
         2753.653     5.013399E-8
         2756.111     3.535159E-8
         2758.569     2.054263E-8
         2761.031     1.330108E-8
         2763.495     1.662709E-8
         2765.958     1.995700E-8
         2768.427     2.329874E-8
         2770.898     2.530685E-8
         2773.369     2.496549E-8
         2775.844     2.462311E-8
          2778.32     2.428009E-8
         2780.799     2.452993E-8
          2783.28     2.603182E-8
         2785.764     2.753733E-8
         2788.249     2.904524E-8
         2790.736     3.094547E-8
         2793.227     3.377777E-8
          2795.72     3.661646E-8
         2798.213     3.945989E-8
         2800.709     3.941841E-8
         2803.209     3.207766E-8
         2805.709     2.472479E-8
         2808.213     1.735047E-8
         2810.718     1.912581E-8
         2813.226     4.376279E-8
         2815.736     6.843911E-8
         2818.247     9.316926E-8
         2820.764     1.101191E-7
         2823.278     1.090316E-7
         2825.798     1.079403E-7
          2828.32     1.068466E-7
         2830.843     1.129023E-7
         2833.369     1.332581E-7
         2835.898     1.536587E-7
         2838.426     1.740766E-7
         2840.959     1.715344E-7
         2843.495     1.311397E-7
         2846.031     9.068550E-8
         2848.571     5.011713E-8
         2851.112     2.685003E-8
         2853.655     2.587550E-8
         2856.202     2.489841E-8
         2858.751     2.391934E-8
         2861.301     2.198763E-8
         2863.853     1.913705E-8
         2866.407     1.628052E-8
         2868.965     1.341638E-8
         2871.526     1.801692E-8
         2874.087     2.769251E-8
         2876.652     3.739425E-8
         2879.218     4.710832E-8
         2881.788     5.894065E-8
         2884.358     7.170398E-8
         2886.931     8.449307E-8
         2889.507     9.731401E-8
         2892.084     8.157153E-8
         2894.666     5.901858E-8
         2897.248     3.643389E-8
         2899.832     1.380885E-8
         2902.421     2.589022E-8
          2905.01     4.034728E-8
         2907.601     5.478015E-8
         2910.198     6.730866E-8
          2912.79     5.683176E-8
         2915.392     4.634704E-8
         2917.992     3.589409E-8
         2920.594     2.802242E-8
         2923.203     2.881664E-8
         2925.807     2.960735E-8
          2928.42     3.039833E-8
         2931.033     2.892433E-8
         2933.646     2.399939E-8
         2936.266     1.907479E-8
         2938.885     1.416574E-8
         2941.506     1.206963E-8
         2944.131     1.205254E-8
         2946.757     1.203541E-8
         2949.387     1.201825E-8
         2952.018     1.288012E-8
         2954.653     1.400751E-8
          2957.29     1.513256E-8
         2959.926     1.625392E-8
         2962.567     1.886601E-8
          2965.21     2.151433E-8
         2967.856     2.415835E-8
         2970.505     3.578398E-8
         2973.155     8.546769E-8
         2975.808     1.350788E-7
         2978.461     1.845209E-7
         2981.121     2.000644E-7
          2983.78     1.690983E-7
         2986.441     1.381980E-7
         2989.104     1.073667E-7
         2991.772     8.738542E-8
         2994.442     7.290617E-8
         2997.113     5.846638E-8
         2999.788     4.404907E-8
         3002.464     3.536222E-8
         3005.142     2.718311E-8
         3007.826     1.901202E-8
         3010.507     1.294391E-8
         3013.194     1.576210E-8
         3015.883     1.857368E-8
         3018.573     2.137680E-8
         3021.267     2.253977E-8
          3023.96     2.185978E-8
          3026.66     2.118003E-8
          3029.36     2.050254E-8
         3032.062     2.479101E-8
          3034.77     3.061561E-8
         3037.475     3.641528E-8
         3040.186     4.123982E-8
         3042.897     3.293871E-8
         3045.612     2.465721E-8
         3048.332     1.638580E-8
         3051.051     1.212276E-8
         3053.772     1.418183E-8
         3056.497     1.623701E-8
         3059.222     1.828405E-8
         3061.954     3.700606E-8
         3064.685     6.228273E-8
         3067.418     8.749539E-8
         3070.156     1.096851E-7
         3072.896     8.271578E-8
         3075.637     5.583140E-8
          3078.38     2.902035E-8
         3081.126     1.594847E-8
         3083.877     2.256793E-8
         3086.628     2.916161E-8
         3089.381     3.573649E-8
         3092.137     5.092317E-8
         3094.895     6.856477E-8
         3097.659     8.617867E-8
         3100.422     9.905322E-8
         3103.187     8.594520E-8
         3105.955     7.278599E-8
         3108.729     5.955913E-8
         3111.501     8.168639E-8
         3114.277     1.339487E-7
         3117.056     1.864457E-7
         3119.836     2.391087E-7
         3122.621     2.195059E-7
         3125.406     1.952958E-7
         3128.195     1.709784E-7
         3130.985     1.411344E-7
         3133.778     1.011720E-7
         3136.575     6.103052E-8
         3139.373     2.075838E-8
         3142.175     2.130743E-8
         3144.979     3.371709E-8
         3147.784     4.616825E-8
         3150.592     5.345865E-8
         3153.405     4.120153E-8
         3156.218     2.891295E-8
         3159.035     1.656828E-8
         3161.851     1.869426E-8
         3164.674     2.843027E-8
         3167.497     3.819195E-8
         3170.322     4.904739E-8
         3173.152     6.817862E-8
         3175.982     8.737321E-8
         3178.816     1.066528E-7
         3181.652     9.894340E-8
          3184.49     7.177644E-8
         3187.333     4.446678E-8
         3190.175     2.098973E-8
         3193.022     5.697511E-8
          3195.87     9.308006E-8
         3198.722     1.293452E-7
         3201.577     1.280099E-7
         3204.433     9.603189E-8
         3207.291     6.393067E-8
         3210.151     3.354808E-8
         3213.018     3.610145E-8
         3215.884     3.866128E-8
         3218.752     4.123108E-8
         3221.623     3.855394E-8
         3224.499     3.181231E-8
         3227.376     2.504407E-8
         3230.255     1.946685E-8
         3233.136     2.637192E-8
          3236.02     3.330403E-8
         3238.908     4.026741E-8
         3241.799     3.734617E-8
          3244.69     2.838899E-8
         3247.584     1.939557E-8
         3250.485     1.418422E-8
         3253.384     2.805909E-8
         3256.286     4.198843E-8
         3259.192     5.598062E-8
         3262.097     5.736152E-8
          3265.01     5.385508E-8
         3267.922     5.033937E-8
         3270.837     4.997033E-8
         3273.758     5.747221E-8
         3276.675     6.498405E-8
         3279.601     7.254431E-8
         3282.526     5.811295E-8
         3285.454     4.013617E-8
         3288.388     2.206737E-8
         3291.319     1.212492E-8
         3294.257     1.214335E-8
         3297.195     1.216179E-8
         3300.137     1.224418E-8
         3303.083     1.363432E-8
         3306.029     1.502909E-8
         3308.979     1.643004E-8
         3311.931     2.262805E-8
         3314.885     3.138957E-8
         3317.844     4.019077E-8
         3320.803     4.698612E-8
         3323.767     4.832906E-8
         3326.731     4.967636E-8
           3329.7     5.102972E-8
          3332.67     4.338103E-8
         3335.643     3.468810E-8
         3338.622     2.595036E-8
         3341.599     5.260014E-8
          3344.58     1.099550E-7
         3347.563     1.675337E-7
         3350.551     2.038965E-7
         3353.541     1.451481E-7
         3356.532     8.619818E-8
         3359.528     2.697872E-8
         3362.524     2.049480E-8
         3365.525     2.391267E-8
         3368.527     2.734216E-8
         3371.532     2.669398E-8
         3374.541     2.209722E-8
         3377.551     1.748453E-8
         3380.565     1.757624E-8
         3383.582     3.819711E-8
         3386.598     5.887572E-8
         3389.623     7.967598E-8
         3392.646     1.054497E-7
         3395.672     1.320322E-7
         3398.705     1.587540E-7
         3401.732     1.430606E-7
          3404.77     9.536195E-8
         3407.807     4.752722E-8
         3410.847     1.545651E-8
         3413.893     2.469967E-8
         3416.938     3.396910E-8
         3419.985     4.327676E-8
         3423.038     7.834263E-8
         3426.089     1.136333E-7
         3429.148     1.491328E-7
         3432.207     2.053465E-7
         3435.268     2.697629E-7
         3438.334     3.344842E-7
         3441.401     3.227668E-7
         3444.473     2.195589E-7
         3447.545     1.159996E-7
         3450.622     3.189862E-8
         3453.701     2.648882E-8
         3456.782     2.106040E-8
         3459.865     1.560898E-8
         3462.951     1.064247E-7
         3466.042     2.020856E-7
         3469.135     2.981422E-7
         3472.229     2.710308E-7
         3475.326     1.957530E-7
         3478.426     1.201604E-7
         3481.532     7.390168E-8
         3484.638     5.808390E-8
         3487.746     4.220068E-8
         3490.859     3.453578E-8
         3493.972     4.866628E-8
         3497.091     6.286385E-8
          3500.21     7.489484E-8
         3503.334     5.613387E-8
          3506.46     3.729172E-8
         3509.586     1.839173E-8
          3512.72     6.957595E-8
         3515.852     1.315782E-7
         3518.989     1.939171E-7
          3522.13     2.101340E-7
         3525.271     2.043505E-7
         3528.418     1.985379E-7
         3531.563     1.690389E-7
         3534.717     1.152904E-7
          3537.87     6.137190E-8
         3541.025     3.655770E-8
         3544.188     7.280752E-8
         3547.349     1.091682E-7
         3550.513     1.335130E-7
         3553.679     9.483811E-8
         3556.849     5.599230E-8
         3560.026     1.733731E-8
         3563.201     2.908336E-8
         3566.379     4.088046E-8
         3569.562     5.273791E-8
         3572.746     4.336528E-8
         3575.935     3.054043E-8
         3579.124     1.766736E-8
         3582.316     1.414202E-8
         3585.513     1.416709E-8
         3588.714     1.419221E-8
         3591.915     2.117129E-8
         3595.118     3.286549E-8
         3598.325     4.461273E-8
         3601.538     4.580002E-8
         3604.751     3.540360E-8
         3607.966     2.496107E-8
         3611.184     1.787599E-8
         3614.409     1.662313E-8
         3617.633     1.536619E-8
         3620.859     2.966177E-8
         3624.089     8.699824E-8
         3627.322     1.445894E-7
         3630.561     1.837044E-7
         3633.799     1.329909E-7
          3637.04     8.204811E-8
         3640.286     3.626283E-8
         3643.533     4.642598E-8
         3646.785     5.664016E-8
         3650.038     6.675590E-8
         3653.295     6.507373E-8
         3656.556     6.338350E-8
         3659.815     6.168760E-8
         3663.082     4.724247E-8
         3666.353     3.195628E-8
         3669.621     1.662804E-8
         3672.896     1.487129E-8
         3676.172     1.489837E-8
         3679.451     1.492551E-8
         3682.737     2.551089E-8
         3686.022     3.825309E-8
         3689.309     5.105206E-8
           3692.6     7.365449E-8
         3695.896     9.896801E-8
         3699.194     1.243981E-7
         3702.494     1.030978E-7
         3705.798     6.650249E-8
         3709.101     2.978661E-8
         3712.412     7.018539E-8
         3715.725     1.396672E-7
         3719.039     2.094183E-7
         3722.358     1.921482E-7
         3725.678     1.391394E-7
         3729.004     8.585343E-8
          3732.33     5.722596E-8
         3735.659     3.913041E-8
         3738.995     2.092962E-8
          3742.33     1.605504E-8
         3745.668     1.694899E-8
         3749.009     1.784692E-8
         3752.354     1.752537E-8
         3755.703     1.668542E-8
         3759.053     1.584205E-8
         3762.408     2.422419E-8
         3765.764     3.627572E-8
         3769.125     4.838876E-8
         3772.487     5.006908E-8
         3775.852     4.805925E-8
         3779.222     4.603858E-8
         3782.594     3.996832E-8
         3785.968     3.265929E-8
         3789.345     2.531645E-8
         3792.725     2.950388E-8
         3796.112     3.650457E-8
         3799.498     4.352856E-8
         3802.887     4.357556E-8
         3806.279     4.240070E-8
         3809.676     4.121948E-8
         3813.076     4.781597E-8
         3816.477     5.526019E-8
         3819.881     6.273766E-8
          3823.29     5.365089E-8
           3826.7     4.392717E-8
         3830.116     3.504586E-8
         3833.532     5.162997E-8
         3836.951     6.828813E-8
         3840.378     8.068162E-8
         3843.803     5.786312E-8
         3847.232     3.494223E-8
         3850.663     1.875273E-8
         3854.102     3.111404E-8
          3857.54     4.351615E-8
          3860.98     5.446806E-8
         3864.426     6.168477E-8
         3867.875     6.893367E-8
         3871.325     7.332410E-8
         3874.778     7.309263E-8
         3878.234     7.285978E-8
         3881.695     7.024219E-8
         3885.157     6.512673E-8
         3888.625     5.998486E-8
         3892.094     7.486533E-8
         3895.565     1.030089E-7
         3899.044     1.313134E-7
         3902.521     1.151204E-7
         3906.002     8.190244E-8
         3909.489     4.851812E-8
         3912.975     5.507536E-8
         3916.468     6.857654E-8
         3919.961     8.212749E-8
         3923.457     8.139794E-8
         3926.961     8.050128E-8
         3930.462     8.395581E-8
         3933.969     1.161964E-7
         3937.478     1.485573E-7
         3940.992     1.612292E-7
          3944.51     1.233853E-7
         3948.028     8.540092E-8
          3951.55     6.768408E-8
         3955.074     7.595887E-8
         3958.606     8.427941E-8
         3962.137     8.165396E-8
         3965.671     7.184192E-8
          3969.21     6.198163E-8
          3972.75     1.104701E-7
         3976.296     1.760134E-7
         3979.843     2.417942E-7
         3983.395     2.286468E-7
          3986.95     2.117633E-7
         3990.504     1.914929E-7
         3994.065     1.508471E-7
          3997.63     1.100284E-7
         4001.196     1.035314E-7
         4004.767     1.653999E-7
         4008.339     2.272676E-7
         4011.914     2.678455E-7
         4015.494     2.899328E-7
         4019.078     3.120325E-7
         4022.663     2.942048E-7
         4026.251     2.625332E-7
         4029.844     2.308275E-7
         4033.441     2.282804E-7
         4037.039     2.270543E-7
         4040.639     2.230413E-7
         4044.243     2.061073E-7
         4047.855     1.891435E-7
         4051.465     1.814684E-7
         4055.079     1.873755E-7
         4058.698     1.932886E-7
         4062.316     2.046668E-7
         4065.944     2.191517E-7
          4069.57     2.336244E-7
           4073.2     2.320670E-7
         4076.838     2.283498E-7
         4080.472     2.206629E-7
         4084.114     1.862838E-7
         4087.756     1.519122E-7
         4091.405     1.399306E-7
         4095.056     1.637844E-7
         4098.708     1.876293E-7
         4102.367     1.837413E-7
         4106.026     1.647086E-7
         4109.688     1.456725E-7
         4113.356     1.926538E-7
         4117.025     2.457568E-7
         4120.699     2.864945E-7
         4124.375     2.744216E-7
         4128.056     2.623377E-7
         4131.738     2.446873E-7
         4135.423     2.207985E-7
         4139.116     1.968727E-7
         4142.808     2.259934E-7
         4146.503     2.718245E-7
         4150.201     3.133639E-7
         4153.903     2.802054E-7
         4157.613     2.470069E-7
         4161.321     2.237092E-7
         4165.033     2.182445E-7
         4168.748     2.127790E-7
         4172.466     2.116538E-7
         4176.192     2.127359E-7
         4179.917     2.138167E-7
         4183.645     2.021316E-7
         4187.379     1.901466E-7
         4191.116     1.832796E-7
         4194.854     1.884352E-7
         4198.596     1.935910E-7
         4202.343     2.048101E-7
         4206.094     2.196948E-7
         4209.845     2.346104E-7
         4213.603     2.161931E-7
         4217.358     1.963138E-7
         4221.123     1.700805E-7
          4224.89     1.289917E-7
         4228.658     8.781233E-8
         4232.432     8.861794E-8
         4236.208     1.126918E-7
         4239.988     1.368433E-7
          4243.77     1.407195E-7
         4247.555     1.445428E-7
         4251.348     1.341030E-7
          4255.14     9.773871E-8
         4258.936     6.127675E-8
         4262.734     4.192281E-8
         4266.537     2.922722E-8
         4270.347     1.764512E-8
         4274.155     1.766057E-8
         4277.968     1.767605E-8
         4281.786     1.769143E-8
         4285.605     1.770669E-8
          4289.43     1.772198E-8
         4293.256     1.773725E-8
         4297.085     1.775253E-8
         4300.922     1.776779E-8
         4304.759     1.778288E-8
         4308.598     1.779799E-8
         4312.441     1.781309E-8
          4316.29     1.782822E-8
         4320.142     1.784335E-8
         4323.996     1.785848E-8
         4327.854     1.787362E-8
         4331.715     1.788877E-8
         4335.581     1.790392E-8
         4339.448     1.791908E-8
         4343.318     1.793405E-8
         4347.195     1.794902E-8
         4351.072     1.796393E-8
         4354.956     1.797870E-8
          4358.84     1.799348E-8
         4362.728     1.800840E-8
         4366.624     1.802341E-8
         4370.519     1.803839E-8
         4374.417     1.805318E-8
         4378.318     1.806799E-8
         4382.229     5.799583E-8
         4386.137     1.281059E-7
         4390.049     2.056947E-7
         4393.967     8.568236E-7
         4397.889     1.509654E-6
         4401.812     2.008203E-6
         4405.738     2.326638E-6
         4409.667     2.645869E-6
         4413.603     3.123889E-6
         4417.542     3.617679E-6
         4421.482     3.953048E-6
         4425.426     4.024504E-6
         4429.373     4.096123E-6
         4433.329     3.924614E-6
         4437.283     3.707004E-6
         4441.241     3.504190E-6
         4445.205     3.334327E-6
         4449.169     3.164145E-6
          4453.14     2.700962E-6
         4457.112     2.159423E-6
         4461.088     1.676620E-6
         4465.069     1.352128E-6
         4469.052     1.027041E-6
         4473.041     8.347361E-7
          4477.03     6.838548E-7
         4481.028     5.513365E-7
         4485.022     4.733607E-7
         4489.025     3.950889E-7
         4493.032     3.511128E-7
         4497.039     3.181539E-7
         4501.053     2.908184E-7
         4505.067     2.795095E-7
         4509.086     2.680897E-7
         4513.107     2.621276E-7
         4517.136     2.577463E-7
         4521.167     2.491181E-7
           4525.2     2.300554E-7
         4529.238     2.108069E-7
         4533.281     2.402807E-7
         4537.324     2.813868E-7
         4541.371     3.168622E-7
         4545.422     3.409140E-7
         4549.479     3.651783E-7
         4553.539     3.954095E-7
           4557.6     4.267287E-7
         4561.668     4.505568E-7
         4565.734     4.633255E-7
         4569.809     4.762084E-7
         4573.887     4.299900E-7
         4577.967     3.804642E-7
         4582.053     3.227175E-7
         4586.142     2.567392E-7
         4590.233     1.923034E-7
         4594.327     1.618228E-7
         4598.425     1.310825E-7
         4602.529     1.313186E-7
         4606.637     1.511156E-7
         4610.746     1.603156E-7
          4614.86     1.208717E-7
         4618.979     8.108870E-8
         4623.097     8.332236E-8
         4627.223     9.959427E-8
          4631.35     1.064795E-7
         4635.483     9.375406E-8
         4639.621     8.092210E-8
         4643.759     1.078856E-7
           4647.9     1.391104E-7
         4652.046     1.572639E-7
         4656.198     1.618271E-7
         4660.354     1.633202E-7
         4664.511     1.313170E-7
         4668.673     9.903885E-8
          4672.84     9.085122E-8
         4677.005     9.401936E-8
          4681.18     9.010866E-8
         4685.355     6.805923E-8
         4689.537     4.581740E-8
         4693.722     5.105520E-8
         4697.909     5.978625E-8
         4702.102     5.683576E-8
         4706.293     4.212955E-8
         4710.493     2.935497E-8
         4714.697     3.208479E-8
         4718.902     3.483352E-8
         4723.114     4.023719E-8
          4727.33     4.661368E-8
         4731.543     4.926780E-8
         4735.766     4.539757E-8
          4739.99     4.149829E-8
         4744.221     4.143158E-8
         4748.455     4.137240E-8
          4752.69     3.822650E-8
         4756.932     3.327226E-8
         4761.172     2.895413E-8
         4765.421     2.635758E-8
         4769.674     2.374068E-8
         4773.929     4.016004E-8
         4778.189     5.830171E-8
         4782.454     6.278619E-8
         4786.719     5.708538E-8
         4790.989     5.170299E-8
         4795.262     4.748841E-8
         4799.542     4.323828E-8
         4803.826     5.845884E-8
          4808.11     7.612633E-8
         4812.401     7.773081E-8
         4816.696     6.654022E-8
         4820.993     5.510086E-8
         4825.292     4.300843E-8
         4829.597     3.082302E-8
         4833.907     2.780014E-8
         4838.221     2.571385E-8
         4842.537     2.499502E-8
         4846.855     2.524356E-8
         4851.179     2.586049E-8
         4855.508     2.746552E-8
         4859.842     2.908182E-8
         4864.177     2.759057E-8
         4868.518     2.596829E-8
         4872.863     2.546577E-8
         4877.209     2.554741E-8
          4881.56     2.562916E-8
         4885.914     2.571100E-8
         4890.277     2.584880E-8
         4894.639     2.681259E-8
         4899.004     2.778287E-8
         4903.376     2.958074E-8
         4907.748     3.163174E-8
          4912.13     3.161008E-8
         4916.512     2.937110E-8
         4920.897     3.223127E-8
         4925.289     5.509942E-8
         4929.685     7.813301E-8
         4934.082     8.357497E-8
         4938.482     8.767775E-8
         4942.887     7.123622E-8
         4947.301     4.378617E-8
         4951.714     2.695107E-8
         4956.131     2.703466E-8
         4960.554     2.711835E-8
         4964.976     2.720170E-8
          4969.41     2.728531E-8
         4973.842     2.736922E-8
         4978.278     2.745327E-8
         4982.724     2.872608E-8
         4987.168     3.075900E-8
         4991.617     3.529597E-8
         4996.069     4.424282E-8
         5000.528     5.292522E-8
         5004.991     5.918857E-8
         5009.455     6.549836E-8
         5013.923     5.145694E-8
         5018.398     3.444393E-8
         5022.874     2.838849E-8
         5027.357     2.849149E-8
         5031.841     2.859438E-8
         5036.329     2.869717E-8
         5040.827     2.880027E-8
         5045.323     2.890366E-8
         5049.823     2.900719E-8
         5054.327     2.911041E-8
         5058.838     2.921381E-8
         5063.353     3.207210E-8
         5067.869     3.590893E-8
          5072.39     3.918903E-8
         5076.919     4.197195E-8
         5081.448     4.186989E-8
          5085.98     3.556260E-8
         5090.516     3.014815E-8
          5095.06     3.207125E-8
         5099.607     3.400873E-8
         5104.155     4.009452E-8
         5108.708     4.662057E-8
         5113.265     4.734253E-8
         5117.828     4.574128E-8
         5122.396     4.206674E-8
         5126.965     3.649131E-8
         5131.538     3.250898E-8
          5136.12     3.173954E-8
         5140.701     3.109961E-8
         5145.287     3.120557E-8
         5149.876     3.131164E-8
         5154.472     3.141791E-8
         5159.072     3.152429E-8
         5163.674     3.163072E-8
         5168.283     3.173734E-8
         5172.895     3.689377E-8
         5177.506     4.508781E-8
         5182.127     4.608939E-8
         5186.749     3.855077E-8
         5191.378     3.311574E-8
         5196.012     3.277039E-8
         5200.646     3.351833E-8
         5205.285     4.106860E-8
         5209.928     4.867501E-8
         5214.577     4.954574E-8
         5219.231     5.031433E-8
         5223.887     4.375563E-8
         5228.549     3.568687E-8
         5233.215     3.662540E-8
          5237.88     4.167327E-8
         5242.555     4.189899E-8
         5247.231     3.807345E-8
         5251.914     3.542766E-8
         5256.601     3.452076E-8
          5261.29     4.425540E-8
         5265.985     8.224844E-8
          5270.68     1.139045E-7
         5275.383     1.068171E-7
         5280.092     9.927231E-8
         5284.801     7.135650E-8
         5289.518     4.321808E-8
         5294.239     3.798985E-8
         5298.958     3.536487E-8
         5303.687     6.184424E-8
         5308.418     9.676047E-8
         5313.155     8.548086E-8
         5317.897     5.072515E-8
         5322.641     3.530620E-8
         5327.391     3.541535E-8
          5332.14     3.552471E-8
         5336.899     3.563461E-8
         5341.662     3.819964E-8
         5346.426     4.537866E-8
         5351.198     5.552119E-8
         5355.974     7.445064E-8
         5360.751     8.645928E-8
         5365.532     6.065372E-8
         5370.318     3.640457E-8
         5375.111     3.651434E-8
         5379.908     3.662421E-8
         5384.707     4.278271E-8
         5389.513     4.910493E-8
         5394.323     4.429406E-8
         5399.131     3.819185E-8
          5403.95     4.766160E-8
          5408.77     6.063803E-8
         5413.597     6.329008E-8
         5418.429     6.238285E-8
         5423.262     5.418852E-8
         5428.099     4.241686E-8
          5432.94     3.783912E-8
         5437.792     3.794982E-8
         5442.643     3.813682E-8
         5447.497     3.838844E-8
         5452.359     3.969195E-8
         5457.225     4.212258E-8
         5462.092     4.250852E-8
         5466.964     4.015562E-8
          5471.84     3.872398E-8
         5476.724     3.883427E-8
         5481.612     3.894464E-8
         5486.501     3.905509E-8
         5491.398     4.443135E-8
         5496.293     6.304688E-8
         5501.198     7.870338E-8
         5506.108     8.482589E-8
         5511.019     8.463833E-8
         5515.938     6.012406E-8
          5520.86     3.979716E-8
         5525.785     3.990025E-8
         5530.713     4.058002E-8
         5535.646     4.468229E-8
         5540.587     5.265909E-8
         5545.532     8.932753E-8
         5550.478     1.226015E-7
         5555.432     1.224691E-7
         5560.387     1.222619E-7
         5565.347     1.211964E-7
         5570.313     1.204853E-7
         5575.282     1.251731E-7
         5580.258     1.303224E-7
         5585.238     1.434533E-7
          5590.22     1.619371E-7
         5595.206     2.955001E-7
         5600.197     4.304953E-7
         5605.198     5.823661E-7
         5610.197     7.304490E-7
         5615.201     7.773102E-7
         5620.213     8.248781E-7
         5625.226     8.839739E-7
         5630.246     9.450725E-7
         5635.268     1.040353E-6
         5640.294     1.139509E-6
         5645.328     1.295988E-6
         5650.367     1.444380E-6
         5655.406     1.482589E-6
         5660.451     1.512227E-6
         5665.502     1.452975E-6
         5670.559     1.401412E-6
         5675.617     1.413469E-6
         5680.679     1.399366E-6
         5685.752     1.215542E-6
         5690.823     1.057576E-6
         5695.899     1.035107E-6
         5700.979     9.994798E-7
         5706.064     9.088500E-7
          5711.16     8.239375E-7
         5716.254     7.597291E-7
         5721.353     7.068330E-7
         5726.456     6.857748E-7
         5731.567     7.190333E-7
         5736.682     8.757367E-7
         5741.799     9.503042E-7
          5746.92     8.724433E-7
         5752.053     8.110842E-7
         5757.183     7.749229E-7
         5762.318     7.730882E-7
         5767.458     8.132147E-7
         5772.602     8.738318E-7
         5777.757     9.546822E-7
         5782.911     9.755978E-7
         5788.068     9.501645E-7
         5793.237     9.580497E-7
         5798.401     9.859071E-7
         5803.577     1.039880E-6
         5808.753     1.105632E-6
         5813.937     1.244152E-6
         5819.126     1.406172E-6
         5824.316     1.511891E-6
         5829.511     1.606450E-6
         5834.711     1.850404E-6
         5839.918     2.110856E-6
          5845.13     2.651183E-6
         5850.344     3.240122E-6
         5855.562     4.436259E-6
         5860.792     5.931573E-6
         5866.016     9.075573E-6
         5871.251     1.283192E-5
         5876.488     1.850491E-5
         5881.732     2.684769E-5
         5886.982     4.059740E-5
         5892.232     5.844444E-5
         5897.491     8.186927E-5
         5902.749     1.184591E-4
         5908.017     1.672247E-4
          5913.29     2.324275E-4
         5918.563     3.076323E-4
         5923.846     4.344907E-4
         5929.133     5.810079E-4
         5934.421     7.640734E-4
         5939.714     9.548595E-4
         5945.012     9.534685E-4
         5950.318     0.001254265
         5955.629     0.001608843
         5960.941     0.002073172
         5966.258     0.002615715
         5971.579     0.003255175
         5976.909     0.004039931
         5982.243     0.004944829
         5987.579     0.005969936
         5992.923     0.007171358
         5998.271      0.00847685
         6003.622     0.009977914
         6008.976      0.01162125
         6014.336      0.01343578
         6019.704      0.01545316
         6025.076       0.0177016
          6030.45      0.02018271
         6035.832      0.02282947
         6041.219      0.02570099
         6046.604      0.02870989
         6052.001      0.03182455
         6057.399      0.03511739
         6062.805      0.03837258
         6068.216      0.04164587
         6073.628      0.04486647
         6079.046      0.04803417
         6084.468      0.05130981
         6089.898      0.05449193
         6095.333      0.05771358
          6100.77      0.06089142
         6106.215      0.06416988
         6111.665      0.06723259
         6117.112      0.07041655
         6122.572      0.07318959
         6128.033      0.07603587
         6133.502      0.07851832
         6138.976      0.08090754
         6144.452      0.08325828
         6149.936      0.08535011
         6155.417      0.08745028
         6160.911      0.08944678
          6166.41      0.09141686
          6171.91      0.09323726
         6177.418      0.09567658
         6182.932      0.09705104
         6188.443      0.09912063
         6193.966       0.1010907
         6199.491       0.1029948
         6205.024       0.1047177
         6210.562       0.1065143
         6216.101       0.1082688
         6221.649       0.1097298
         6227.195       0.1112412
         6232.756       0.1125681
         6238.315       0.1139943
         6243.879       0.1155594
         6249.452       0.1168587
         6255.029       0.1182322
         6260.608       0.1196182
         6266.193       0.1208839
         6271.782       0.1224129
         6277.379       0.1236357
         6282.982       0.1249075
         6288.586       0.1262585
         6294.198       0.1273161
         6299.809       0.1283233
         6305.435       0.1290912
         6311.059       0.1300685
         6316.688       0.1308634
         6322.326        0.131499
         6327.968       0.1322272
         6333.612       0.1327894
         6339.262       0.1330827
         6344.916       0.1334863
         6350.579       0.1338554
         6356.247       0.1339609
         6361.916       0.1342109
         6367.594       0.1343238
         6373.277       0.1346971
         6378.961       0.1344111
         6384.651       0.1346157
         6390.346       0.1344808
         6396.049       0.1347008
         6401.757       0.1345541
         6407.467       0.1344282
         6413.183          0.1345
         6418.906       0.1343489
         6424.631       0.1342524
         6430.365       0.1341155
         6436.104        0.133769
         6441.845        0.133827
         6447.594       0.1338485
         6453.345       0.1336037
         6459.101       0.1335654
         6464.866       0.1336046
         6470.632       0.1336733
         6476.407       0.1338493
         6482.184       0.1342151
         6487.969       0.1343293
         6493.756       0.1344944
         6499.548       0.1348531
         6505.349       0.1349221
         6511.154       0.1350504
         6516.962       0.1349486
         6522.778       0.1348818
         6528.596       0.1346124
         6534.419       0.1348434
         6540.251       0.1350731
         6546.088       0.1348501
         6551.927       0.1349161
         6557.771        0.134998
         6563.624       0.1350369
         6569.478       0.1353909
         6575.341       0.1356039
         6581.206       0.1357959
          6587.08       0.1359738
         6592.955       0.1363678
         6598.839       0.1366304
         6604.729       0.1369834
         6610.616       0.1370713
         6616.516       0.1372974
         6622.421        0.137338
         6628.328       0.1373295
         6634.244       0.1373075
         6640.165       0.1372157
         6646.087       0.1371724
         6652.015       0.1371908
         6657.948       0.1371693
         6663.891       0.1369233
         6669.838       0.1369609
         6675.787       0.1368371
         6681.745       0.1367584
         6687.701       0.1367379
          6693.67       0.1366053
         6699.644       0.1364719
          6705.62       0.1362498
         6711.604       0.1360504
         6717.594       0.1357212
         6723.586       0.1355544
         6729.583       0.1351949
         6735.585       0.1350245
         6741.597       0.1346505
         6747.613       0.1344085
         6753.632        0.134052
          6759.66       0.1339444
         6765.692       0.1337932
         6771.723       0.1334667
         6777.767       0.1333104
         6783.813       0.1330727
         6789.867       0.1325597
         6795.927       0.1326245
         6801.988       0.1320421
         6808.055       0.1318684
         6814.127       0.1315202
         6820.209       0.1311837
         6826.296       0.1307657
         6832.385       0.1304847
         6838.482       0.1304051
         6844.586       0.1303181
         6850.687       0.1298784
         6856.801       0.1297488
         6862.917        0.129517
         6869.042       0.1293962
         6875.173       0.1289612
         6881.305       0.1287094
         6887.446       0.1283621
         6893.586       0.1279371
         6899.738       0.1275375
         6905.896       0.1273188
         6912.056       0.1270799
         6918.225       0.1264923
         6924.399       0.1260777
         6930.572       0.1256905
         6936.757       0.1251098
         6942.944       0.1247841
         6949.141       0.1242115
         6955.343       0.1235915
         6961.546       0.1227939
          6967.76       0.1220149
         6973.971       0.1211774
         6980.195       0.1204994
         6986.424         0.11958
         6992.656       0.1187491
         6998.897       0.1181314
         7005.143       0.1170182
         7011.392       0.1163131
         7017.645       0.1157515
         7023.904       0.1151119
         7030.173       0.1144481
         7036.448       0.1138547
         7042.724       0.1133364
         7049.009        0.112503
         7055.292       0.1115177
         7061.589       0.1103439
         7067.892       0.1090183
         7074.196         0.10762
          7080.51       0.1059767
         7086.829       0.1043858
          7093.15       0.1028127
         7099.477       0.1015717
         7105.809       0.1005314
         7112.151      0.09967098
         7118.498      0.09923154
         7124.848      0.09906567
         7131.207      0.09910847
         7137.571      0.09933273
         7143.933      0.09956011
         7150.309      0.09982547
         7156.687       0.1001825
         7163.074       0.1002637
         7169.467      0.09985175
         7175.862      0.09958995
         7182.262      0.09892362
         7188.668      0.09842971
         7195.084      0.09788001
         7201.506      0.09734194
         7207.929      0.09694483
         7214.362      0.09677047
         7220.801      0.09712723
         7227.237      0.09721269
         7233.688      0.09787886
         7240.144      0.09884043
         7246.601      0.09987657
         7253.069        0.101017
         7259.538       0.1022136
         7266.017       0.1030706
         7272.498       0.1039619
         7278.989       0.1049279
         7285.481       0.1052946
         7291.979       0.1055569
         7298.487       0.1057349
         7305.001       0.1054624
         7311.517       0.1045789
         7318.038       0.1033516
         7324.569       0.1013718
         7331.103      0.09901427
         7337.646      0.09604533
          7344.19      0.09245039
         7350.745      0.08835994
         7357.301      0.08385899
         7363.867       0.0789763
         7370.436       0.0739051
         7377.014       0.0686202
         7383.593      0.06303696
         7390.183      0.05736246
         7396.775      0.05143885
         7403.372      0.04576422
         7409.979      0.04022359
         7416.589      0.03518439
         7423.208      0.03067064
         7429.829      0.02676954
          7436.46      0.02326669
         7443.097       0.0203484
         7449.736      0.01797518
         7456.381      0.01589623
         7463.036      0.01427064
         7469.692      0.01288255
         7476.359      0.01169968
         7483.027        0.010683
         7489.702     0.009783015
         7496.386     0.009012545
         7503.077     0.008151575
         7509.769     0.007324029
         7516.471     0.006520049
         7523.175     0.005762856
          7529.89      0.00506517
         7536.606     0.004462203
         7543.328     0.003906935
         7550.061     0.003433973
         7556.794     0.003022489
         7563.539     0.002813186
          7570.29     0.002638508
         7577.042     0.002464891
           7583.8     0.002292208
         7590.568     0.002118233
         7597.339     0.001922198
         7604.119     0.001757453
         7610.906     0.001613918
         7617.694     0.001476227
         7624.489     0.001360272
          7631.29     0.001255461
           7638.1     0.001150154
         7644.917     0.001062714
         7651.736     9.818479E-4
         7658.565     8.995630E-4
         7665.396     8.313303E-4
         7672.233     7.669530E-4
         7679.081     7.026448E-4
          7685.93     6.509463E-4
          7692.79     6.016720E-4
         7699.655     5.530840E-4
         7706.523     5.151620E-4
         7713.401     4.782840E-4
         7720.276     4.423026E-4
         7727.167     4.143531E-4
         7734.063     3.866345E-4
         7740.961     3.599900E-4
          7747.87     3.387099E-4
         7754.785     3.169647E-4
         7761.697     2.960320E-4
         7768.625     2.780124E-4
         7775.554     2.594824E-4
         7782.494     2.421864E-4
         7789.439     2.272903E-4
         7796.387     2.119977E-4
         7803.345     1.982011E-4
         7810.301     1.860739E-4
         7817.271     1.740593E-4
         7824.249     1.636964E-4
         7831.227     1.544447E-4
         7838.216     1.453868E-4
         7845.212     1.377779E-4
         7852.209     1.307867E-4
         7859.213     1.240362E-4
         7866.223     1.185100E-4
         7873.244     1.129755E-4
         7880.271     1.072898E-4
         7887.299     1.024717E-4
         7894.338     9.760872E-5
         7901.375     9.284840E-5
         7908.427     8.857058E-5
         7915.485     8.396451E-5
         7922.545     7.956830E-5
         7929.616     7.569217E-5
         7936.693     7.140716E-5
         7943.772     6.758523E-5
         7950.858     6.417082E-5
          7957.95     6.065446E-5
         7965.052     5.769412E-5
         7972.161     5.499583E-5
         7979.271     5.237758E-5
         7986.393     5.040541E-5
         7993.521     4.957487E-5
         8000.646     4.958048E-5
         8007.786     4.709425E-5
         8014.929     4.471032E-5
         8022.082     4.261861E-5
         8029.242     4.112049E-5
         8036.403     3.882786E-5
         8043.576     3.725286E-5
         8050.746     3.637977E-5
         8057.931     3.458935E-5
         8065.123     3.315022E-5
         8072.316     3.204077E-5
         8079.521     3.132032E-5
         8086.731     2.993386E-5
          8093.94     2.899016E-5
         8101.164     2.839713E-5
         8108.389     2.755047E-5
         8115.626     2.651562E-5
         8122.869     2.553143E-5
         8130.114     2.470248E-5
          8137.37     2.381090E-5
         8144.628     2.319353E-5
         8151.893     2.251697E-5
         8159.168     2.123909E-5
         8166.446     2.055713E-5
         8173.734     1.996834E-5
         8181.029     1.940158E-5
         8188.326     1.886951E-5
          8195.63     1.856266E-5
         8202.939     1.805565E-5
         8210.261     1.718519E-5
         8217.588     1.709769E-5
         8224.918     1.638525E-5
         8232.259     1.549792E-5
         8239.602     1.489689E-5
          8246.95     1.438141E-5
         8254.311     1.407420E-5
         8261.673     1.377941E-5
         8269.047     1.304513E-5
         8276.427     1.268189E-5
         8283.809     1.222294E-5
         8291.197     1.167650E-5
         8298.597     1.139628E-5
         8305.999     1.111146E-5
         8313.412     1.100414E-5
         8320.827     1.102374E-5
         8328.253     1.041071E-5
         8335.687     1.060729E-5
         8343.121     1.062991E-5
         8350.563     1.014768E-5
         8358.011     1.049771E-5
         8365.471     1.049362E-5
         8372.937     1.047857E-5
         8380.409     1.061738E-5
         8387.879     1.029979E-5
         8395.365     9.721136E-6
         8402.854     9.298481E-6
         8410.353     9.290827E-6
         8417.859     9.234030E-6
         8425.367     8.769113E-6
         8432.887     8.367108E-6
         8440.408     8.335105E-6
         8447.937     8.475143E-6
         8455.477     8.525189E-6
         8463.019     8.441619E-6
         8470.571     8.203790E-6
         8478.127     7.901081E-6
         8485.693     7.495510E-6
         8493.262     7.256026E-6
         8500.842     7.266309E-6
         8508.425     7.179264E-6
         8516.019     7.240370E-6
         8523.614     7.353138E-6
         8531.221     7.381401E-6
          8538.83     6.894484E-6
         8546.446     6.351231E-6
         8554.074     6.152184E-6
         8561.704     6.205652E-6
         8569.345     6.068771E-6
         8576.993     6.025287E-6
         8584.644     5.703133E-6
         8592.301     5.290050E-6
         8599.969     5.094652E-6
          8607.64     5.559492E-6
         8615.321     5.551254E-6
         8623.006     5.368246E-6
         8630.702     5.267684E-6
         8638.405     5.448518E-6
         8646.105     5.230158E-6
         8653.821     4.983426E-6
          8661.54     4.777754E-6
         8669.271     4.429581E-6
         8677.008     4.140712E-6
         8684.747     4.222237E-6
         8692.493     4.291426E-6
         8700.251     3.867294E-6
         8708.012     3.725946E-6
         8715.783     3.179737E-6
         8723.563     2.736643E-6
         8731.343     2.550559E-6
         8739.136     2.236515E-6
         8746.926     2.205779E-6
         8754.732     1.854477E-6
         8762.546     1.508374E-6
         8770.361     1.643445E-6
         8778.188     1.772646E-6
         8786.019     1.675624E-6
         8793.859     1.537420E-6
         8801.703     1.510741E-6
         8809.554     1.786034E-6
         8817.416     1.595154E-6
         8825.286     1.398351E-6
         8833.157     1.341824E-6
         8841.041     1.463125E-6
         8848.922     1.493400E-6
         8856.819     1.070081E-6
         8864.724     8.647185E-7
         8872.631     1.039225E-6
          8880.55     1.539178E-6
         8888.476     1.422742E-6
         8896.403     1.289654E-6
         8904.338     1.220393E-6
          8912.28     1.133859E-6
         8920.234     8.647122E-7
         8928.195     4.955394E-7
         8936.159     5.758882E-7
         8944.135     6.530078E-7
         8952.117     6.287806E-7
         8960.097     6.611074E-7
         8968.094     4.369551E-7
         8976.093     7.782961E-7
         8984.104     7.786369E-7
         8992.122     5.389809E-7
         9000.143     9.603995E-7
         9008.175     4.548575E-7
         9016.205     4.319090E-7
         9024.252     5.594690E-7
         9032.306     5.756539E-7
         9040.362     3.043130E-7
         9048.431     2.175395E-7
         9056.506     3.742809E-7
         9064.579     3.702318E-7
         9072.669     2.944074E-7
         9080.761     4.167367E-7
         9088.865     6.358675E-7
         9096.978     3.161528E-7
         9105.092     2.254071E-7
         9113.218     4.039662E-7
         9121.341     6.010264E-7
         9129.481     2.579346E-7
          9137.63     5.924675E-7
          9145.78     5.753424E-7
         9153.942     4.970952E-7
         9162.112     4.669269E-7
         9170.284     2.824063E-7
         9178.464     3.405932E-7
         9186.655     3.808366E-7
         9194.849     4.905145E-7
         9203.056     4.835374E-7
         9211.264     2.929615E-7
         9219.485     6.131480E-7
         9227.708     3.077123E-7
         9235.938     3.572736E-7
         9244.182     3.310033E-7
         9252.427     2.519870E-7
         9260.685     5.279502E-7
         9268.949     4.282182E-7
         9277.217     3.265750E-7
         9285.492     3.932105E-7
         9293.779     3.918850E-7
         9302.068     2.879032E-7
          9310.37     3.950919E-7
         9318.675     1.958760E-7
         9326.991     9.731237E-8
         9335.315     2.545271E-7
         9343.637     3.207106E-7
         9351.977     1.474454E-7
         9360.317     1.271466E-7
         9368.672     5.142644E-7
         9377.033     5.052472E-7
         9385.396     2.774209E-7
         9393.768     1.789788E-7
         9402.152     3.103193E-7
         9410.538     3.953525E-7
         9418.937     6.300496E-7
         9427.338     2.764626E-7
         9435.752     1.482545E-7
         9444.173     2.617326E-7
         9452.592     4.127857E-7
         9461.028     4.114973E-7
         9469.472     3.175173E-7
         9477.918     2.593956E-7
         9486.377     3.277485E-7
         9494.838     2.844227E-7
         9503.313     1.504000E-7
         9511.788     7.708702E-8
         9520.272     1.112214E-7
          9528.77     6.550410E-8
         9537.269     1.401874E-7
          9545.78     2.350195E-7
           9554.3     2.119959E-7
         9562.821     1.541063E-7
         9571.351     2.373337E-7
         9579.894     2.419763E-7
         9588.438     7.806776E-8
         9596.995     2.052444E-7
         9605.561     2.248707E-7
         9614.128     2.594305E-7
         9622.704     3.219207E-7
         9631.286     2.300159E-7
         9639.882     2.737354E-7
         9648.485     3.752592E-7
         9657.092     3.980138E-7
         9665.711     3.521723E-7
         9674.332     3.553756E-7
         9682.961     4.303796E-7
         9691.603     5.137093E-7
         9700.252     6.323221E-7
         9708.904     5.158071E-7
         9717.569     4.228529E-7
         9726.237     3.335264E-7
         9734.912     3.236300E-7
         9743.601     4.206003E-7
         9752.291     5.118234E-7
         9760.995     4.078067E-7
         9769.701     2.943141E-7
         9778.421     2.988416E-7
         9787.147     2.631115E-7
         9795.872     1.645851E-7
         9804.614     1.877768E-7
         9813.359     2.734104E-7
         9822.118     2.521880E-7
         9830.884     2.177667E-7
         9839.652     1.866033E-7
         9848.435     2.101622E-7
         9857.219     1.826002E-7
         9866.011     2.189572E-7
         9874.816     2.515821E-7
         9883.624     2.422966E-7
         9892.444     2.389992E-7
         9901.273     2.947371E-7
         9910.104     3.653025E-7
         9918.944     3.739187E-7
         9927.791     3.961130E-7
         9936.651     4.375564E-7
         9945.521     4.605720E-7
         9954.391     5.136887E-7
         9963.275     5.778133E-7
         9972.162     5.927044E-7
         9981.057     6.135591E-7
         9989.964     5.859760E-7
          9998.88     5.497359E-7
          10007.8     5.251312E-7
         10016.72     5.290354E-7
         10025.67     5.104849E-7
          10034.6     4.217905E-7
         10043.56     3.438410E-7
         10052.52     3.304455E-7
         10061.49     2.731584E-7
         10070.47     2.813845E-7
         10079.46     2.555829E-7
         10088.45     2.345550E-7
         10097.44     2.061527E-7
         10106.46     2.108769E-7
         10115.48     2.016508E-7
          10124.5     1.817893E-7
         10133.53     2.048618E-7
         10142.58     2.722179E-7
         10151.62     3.072894E-7
         10160.68     3.164104E-7
         10169.74     2.808203E-7
         10178.81     2.752136E-7
          10187.9     2.122470E-7
         10196.99     1.872835E-7
         10206.08     1.472276E-7
         10215.19     1.128633E-7
         10224.31     1.155751E-7
         10233.43     1.337536E-7
         10242.56     1.363341E-7
         10251.69     1.361064E-7
         10260.85     1.330380E-7
           10270.     1.377547E-7
         10279.16     1.676597E-7
         10288.33     1.838812E-7
         10297.51     2.367984E-7
          10306.7     2.445994E-7
         10315.89     2.476243E-7
          10325.1     2.664415E-7
          10334.3     2.895853E-7
         10343.53     2.955783E-7
         10352.76     2.775307E-7
         10361.99     2.567639E-7
         10371.25     2.330993E-7
          10380.5     2.023478E-7
         10389.76     1.770647E-7
         10399.02     1.891515E-7
          10408.3     1.648142E-7
         10417.59     1.416194E-7
         10426.89     1.278785E-7
         10436.19     1.108599E-7
         10445.49     8.721968E-8
         10454.82     7.427071E-8
         10464.15     6.435332E-8
         10473.48     5.365857E-8
         10482.82     5.085660E-8
         10492.17     4.180611E-8
         10501.54     4.581197E-8
         10510.91     4.091651E-8
         10520.29     3.819650E-8
         10529.67     3.711423E-8
         10539.07     3.302399E-8
         10548.47     3.445670E-8
         10557.88     3.836818E-8
         10567.31     3.916815E-8
         10576.73     4.533221E-8
         10586.17     5.390098E-8
         10595.61     6.187950E-8
         10605.06     7.556940E-8
         10614.53     8.968397E-8
           10624.     1.006723E-7
         10633.48     1.115189E-7
         10642.96     1.182904E-7
         10652.45     1.241564E-7
         10661.97     1.253096E-7
         10671.48     1.260772E-7
         10680.99     1.208672E-7
         10690.53     1.126707E-7
         10700.07     1.045999E-7
         10709.61     9.743191E-8
         10719.16     8.879759E-8
         10728.72     8.101692E-8
         10738.31     7.897201E-8
         10747.88     7.057330E-8
         10757.47     6.548802E-8
         10767.08     5.968224E-8
         10776.67     5.440156E-8
         10786.29     5.165915E-8
         10795.91     5.129155E-8
         10805.54     4.806171E-8
         10815.18     4.574132E-8
         10824.83     4.701011E-8
         10834.49     4.888160E-8
         10844.17     5.112471E-8
         10853.84     5.245050E-8
         10863.52     5.400216E-8
         10873.21     5.788205E-8
         10882.91     5.876801E-8
         10892.63     5.913602E-8
         10902.35     5.764480E-8
         10912.07     5.593539E-8
         10921.81     5.348480E-8
         10931.54     5.020395E-8
         10941.31     4.729841E-8
         10951.07     4.553871E-8
         10960.83     4.246960E-8
         10970.62     4.055675E-8
         10980.39     4.022196E-8
          10990.2     3.978060E-8
           11000.     3.590851E-8
