#  Table pcf622wsys.tab  Mon 12:21:17 02-Jun-97

#      WAVELENGTH      THROUGHPUT
#       angstroms                

            1850.     1.092636E-6
         1851.651     4.229491E-7
         1853.301     1.325275E-7
         1854.956     1.311887E-7
         1856.611     3.955604E-7
         1858.267     7.306170E-7
         1859.925     2.775687E-7
         1861.584     1.882869E-7
         1863.246     2.525562E-7
         1864.909     3.062918E-7
         1866.572     3.731086E-7
         1868.237     5.293361E-7
         1869.904     5.240256E-7
         1871.573     1.980893E-7
         1873.242     1.033596E-7
         1874.913     2.631236E-7
         1876.585     4.117209E-7
          1878.26     2.792332E-7
         1879.937     1.583270E-7
         1881.613     2.223406E-7
         1883.292     1.710258E-7
         1884.973     9.902767E-8
         1886.654     5.863424E-8
         1888.338     6.103056E-8
         1890.023     1.129703E-7
         1891.709     3.293496E-7
         1893.396     3.486528E-7
         1895.086     2.687358E-7
         1896.775     1.671848E-7
         1898.469     8.349150E-8
         1900.163     1.937095E-8
         1901.857     4.472004E-9
         1903.555     5.284653E-9
         1905.254     4.264452E-8
         1906.953     6.129341E-8
         1908.655     4.053996E-8
         1910.357     4.955722E-9
         1912.061     3.266817E-9
         1913.768     3.753259E-9
         1915.476     2.900445E-9
         1917.184     3.086640E-9
         1918.894     1.348633E-8
         1920.606     3.559852E-8
          1922.32     5.562939E-8
         1924.035     4.378475E-8
         1925.752     4.493245E-8
          1927.47     4.596059E-8
         1929.189     8.823355E-8
          1930.91     1.057881E-7
         1932.634     6.952746E-8
         1934.358     1.835955E-8
         1936.084     1.061118E-8
         1937.811     1.322744E-8
          1939.54     3.117902E-8
          1941.27     3.919647E-8
         1943.003     2.544691E-8
         1944.737     9.411072E-9
          1946.47     1.697714E-8
         1948.207     6.016341E-8
         1949.947     1.812378E-7
         1951.685     1.629030E-7
         1953.427     1.200637E-7
         1955.171     5.964223E-8
         1956.913     2.117858E-8
          1958.66     1.450856E-8
         1960.408     1.452780E-8
         1962.157     5.593015E-9
         1963.908     1.033870E-8
         1965.658     6.283626E-8
         1967.413     1.141390E-7
         1969.169     1.216382E-7
         1970.925     7.991886E-8
         1972.684     2.931721E-8
         1974.444     1.000053E-8
         1976.205     9.377158E-9
         1977.969     1.838509E-8
         1979.734     1.425481E-8
           1981.5     1.603038E-8
         1983.268     7.950071E-8
         1985.037     1.972819E-7
         1986.809     2.716850E-7
         1988.581     2.489485E-7
         1990.355     1.868837E-7
         1992.131     1.278858E-7
         1993.908     7.968531E-8
         1995.688     5.006383E-8
         1997.467     4.657823E-8
          1999.25     6.655602E-8
         2001.034     8.891609E-8
         2002.818     1.032776E-7
         2004.606     1.022339E-7
         2006.396     7.095635E-8
         2008.184     1.239312E-8
         2009.976     7.535607E-9
         2011.769     3.107646E-8
         2013.565     4.788969E-8
         2015.362     4.696803E-8
         2017.158     3.879284E-8
         2018.958     2.832542E-8
          2020.76     2.163678E-8
         2022.563     1.964673E-8
         2024.368     1.551181E-8
         2026.173     2.328732E-8
         2027.982     5.756646E-8
         2029.791     7.432485E-8
         2031.602     5.114246E-8
         2033.414     4.102154E-8
         2035.228     4.529196E-8
         2037.044     4.993207E-8
         2038.861     5.099277E-8
         2040.681     5.025159E-8
         2042.502     4.748364E-8
         2044.324     4.910099E-8
         2046.147     7.192493E-8
         2047.974     9.801863E-8
           2049.8     8.384402E-8
          2051.63     7.168505E-8
         2053.461     7.226583E-8
         2055.291     5.867004E-8
         2057.125     3.900503E-8
         2058.961     2.698792E-8
         2060.798     2.813158E-8
         2062.637     3.357382E-8
         2064.477     2.912480E-8
         2066.318     2.264839E-8
         2068.164     1.878047E-8
         2070.007     7.406662E-9
         2071.855     4.117626E-9
         2073.704     1.040659E-8
         2075.553     3.550836E-8
         2077.405     3.487113E-8
         2079.259     2.219472E-8
         2081.113     1.483729E-8
         2082.971     1.100506E-8
         2084.829     7.512530E-9
         2086.688     8.224240E-9
          2088.55     1.375187E-8
         2090.414     1.987439E-8
         2092.279     2.741279E-8
         2094.145     3.336266E-8
         2096.014     2.185125E-8
         2097.885     8.887636E-9
         2099.756     7.098399E-9
          2101.63     1.113792E-8
         2103.503     7.652107E-9
         2105.381     6.130064E-9
          2107.26     8.463402E-9
         2109.139     7.086968E-9
         2111.022     5.713834E-9
         2112.906     1.613390E-8
         2114.789     3.401772E-8
         2116.677     3.948857E-8
         2118.564     3.339567E-8
         2120.455     4.104423E-8
         2122.348     5.307477E-8
         2124.241     4.952784E-8
         2126.135     2.817927E-8
         2128.033     1.142000E-8
         2129.932     1.144156E-8
         2131.832     2.322562E-8
         2133.734     1.854018E-8
         2135.637     8.977779E-9
         2137.544     8.095663E-9
          2139.45     2.034869E-8
         2141.359     3.917649E-8
          2143.27     4.715795E-8
         2145.182     4.204218E-8
         2147.096     2.955196E-8
         2149.011     1.590496E-8
         2150.929     9.423666E-9
         2152.848     1.118107E-8
         2154.768     1.182863E-8
         2156.692     8.361622E-9
         2158.615     8.280527E-9
         2160.541     1.296607E-8
         2162.469     1.803042E-8
         2164.397     1.928075E-8
          2166.33     1.090055E-8
         2168.263     5.701095E-9
         2170.196     5.658585E-9
         2172.133     7.897634E-9
          2174.07     9.144117E-9
         2176.011     5.070950E-9
         2177.953     7.233409E-9
         2179.895     1.493089E-8
          2181.84     1.604321E-8
         2183.787     2.657123E-8
         2185.735     3.294265E-8
         2187.686     2.198404E-8
         2189.637     1.685094E-8
          2191.59     1.851000E-8
         2193.546     2.428135E-8
         2195.503     2.076346E-8
         2197.462     1.594623E-8
         2199.423     1.436062E-8
         2201.385     1.265074E-8
         2203.348     8.349433E-9
         2205.315     8.064307E-9
         2207.283     1.437379E-8
         2209.252     2.261030E-8
         2211.222     3.315427E-8
         2213.196     3.800853E-8
          2215.17     3.779132E-8
         2217.147     2.874828E-8
         2219.125     1.591028E-8
         2221.104     1.108650E-8
         2223.086     1.264222E-8
         2225.071     1.636057E-8
         2227.055     1.462993E-8
         2229.042     9.475651E-9
         2231.031     1.067869E-8
         2233.021     1.170542E-8
         2235.015     7.794700E-9
         2237.008     5.427141E-9
         2239.003     6.125123E-9
         2241.002     1.166829E-8
         2242.999     1.919987E-8
         2245.002     1.699451E-8
         2247.005     9.693452E-9
         2249.009     8.515023E-9
         2251.016     1.211310E-8
         2253.024     1.625787E-8
         2255.033     1.844764E-8
         2257.046     1.585642E-8
         2259.061     1.271527E-8
         2261.075     1.297427E-8
         2263.092     1.475944E-8
         2265.112     1.392857E-8
         2267.134     1.192029E-8
         2269.156     9.470815E-9
         2271.181     6.711066E-9
         2273.207     7.831451E-9
         2275.234     1.314691E-8
         2277.266     1.971932E-8
         2279.296     2.390026E-8
          2281.33     2.527115E-8
         2283.366     1.862065E-8
         2285.402     1.053648E-8
         2287.441     1.083867E-8
         2289.483     2.395698E-8
         2291.525     4.251051E-8
          2293.57     4.731845E-8
         2295.615     3.613620E-8
         2297.663     2.678846E-8
         2299.715     2.015005E-8
         2301.765     1.145370E-8
          2303.82     7.545492E-9
         2305.876     9.942735E-9
         2307.932     1.306731E-8
         2309.992     1.280761E-8
         2312.051     1.813978E-8
         2314.116     2.408068E-8
          2316.18     1.659326E-8
         2318.246     1.582774E-8
         2320.315     2.828380E-8
         2322.385     3.704917E-8
         2324.457     2.992349E-8
         2326.531     1.439434E-8
         2328.606     9.012058E-9
         2330.685     7.598849E-9
         2332.764     6.895581E-9
         2334.845     6.931144E-9
         2336.927     7.811561E-9
         2339.012     8.915748E-9
         2341.101     7.938978E-9
         2343.188     7.073489E-9
         2345.279     7.108963E-9
         2347.372     7.144537E-9
         2349.467     7.180186E-9
         2351.562     7.215460E-9
         2353.661     7.250691E-9
         2355.759     7.285948E-9
         2357.862     7.321329E-9
         2359.966     7.356783E-9
         2362.071     7.391688E-9
         2364.179     7.575891E-9
         2366.288     1.057699E-8
         2368.398     2.204153E-8
         2370.512     3.171102E-8
         2372.628     2.159986E-8
         2374.744     1.068068E-8
         2376.863     2.160780E-8
         2378.983     4.623946E-8
         2381.105     5.295298E-8
          2383.23     4.581455E-8
         2385.357     4.337126E-8
         2387.485     4.516765E-8
         2389.615     4.885004E-8
         2391.747     4.931320E-8
         2393.881     4.993282E-8
         2396.017     6.419987E-8
         2398.154     8.138455E-8
         2400.293     6.845093E-8
         2402.435     5.354205E-8
          2404.58     5.752283E-8
         2406.724     6.005986E-8
         2408.872     6.039569E-8
         2411.022     6.981684E-8
         2413.171     7.752030E-8
         2415.326     7.095512E-8
         2417.479     5.901235E-8
         2419.637     4.726520E-8
         2421.796     4.928927E-8
         2423.957     4.727812E-8
          2426.12     3.560548E-8
         2428.284     3.390580E-8
         2430.451     4.098903E-8
         2432.619     4.803866E-8
         2434.789     5.650348E-8
         2436.962     6.240047E-8
         2439.136     5.492714E-8
         2441.312     4.888197E-8
          2443.49     4.935625E-8
          2445.67     4.219843E-8
         2447.853     2.946752E-8
         2450.036     2.196325E-8
         2452.222     2.899300E-8
         2454.409     3.155927E-8
           2456.6     2.036144E-8
         2458.792     1.608708E-8
         2460.985     1.437608E-8
          2463.18     1.183172E-8
         2465.379     1.074980E-8
         2467.579     1.226175E-8
         2469.778     2.104071E-8
         2471.983     1.985050E-8
          2474.19     1.287882E-8
         2476.396     9.213176E-9
         2478.606     1.049358E-8
         2480.817     2.112251E-8
         2483.029     3.995734E-8
         2485.247     4.128454E-8
         2487.462     2.921013E-8
         2489.682     1.964454E-8
         2491.904     2.169283E-8
         2494.125     1.902521E-8
         2496.353     1.605048E-8
         2498.579     2.503711E-8
         2500.808     2.574215E-8
          2503.04     3.284728E-8
         2505.272     4.897001E-8
         2507.509     5.013308E-8
         2509.745     4.988673E-8
         2511.985     5.632041E-8
         2514.225     5.543562E-8
         2516.468     3.925673E-8
         2518.714     3.010837E-8
         2520.962     3.589595E-8
          2523.21     3.487097E-8
         2525.462     2.288622E-8
         2527.715     1.775011E-8
         2529.971     1.563460E-8
         2532.229     1.650901E-8
         2534.486     3.223793E-8
         2536.748     3.419187E-8
          2539.01     3.107276E-8
         2541.277     3.007700E-8
         2543.545     1.519784E-8
         2545.813     1.023060E-8
         2548.084     1.017706E-8
         2550.358     1.424028E-8
         2552.635     3.209681E-8
         2554.911     4.196908E-8
         2557.191     3.460411E-8
         2559.471     3.142295E-8
         2561.755     2.777451E-8
         2564.042     1.991722E-8
         2566.329     2.536744E-8
         2568.619     2.126345E-8
         2570.908     1.696692E-8
         2573.205     2.190488E-8
           2575.5     3.356667E-8
         2577.797     3.486404E-8
         2580.097     3.830020E-8
         2582.399     4.956277E-8
         2584.704     4.425042E-8
          2587.01     3.778376E-8
         2589.318     4.671046E-8
         2591.629     5.620527E-8
          2593.94     4.600189E-8
         2596.254     4.678221E-8
         2598.573     5.330284E-8
         2600.889     5.580863E-8
          2603.21     5.247612E-8
         2605.532     3.931419E-8
         2607.856     3.539146E-8
         2610.185     4.665880E-8
         2612.512     5.267612E-8
         2614.843     4.644047E-8
         2617.177     3.339220E-8
          2619.51     3.055816E-8
         2621.849     3.522267E-8
         2624.188     4.792551E-8
         2626.528     4.609343E-8
         2628.873     3.797052E-8
         2631.217     3.311681E-8
         2633.566     3.626447E-8
         2635.916     3.222047E-8
         2638.267     1.965702E-8
          2640.62     1.518407E-8
         2642.977     2.062596E-8
         2645.334     2.905019E-8
         2647.695     3.562313E-8
         2650.057     4.138517E-8
         2652.422     3.458626E-8
         2654.788     2.615145E-8
         2657.157     2.805805E-8
         2659.526     2.401342E-8
         2661.899     2.404724E-8
         2664.275     3.414671E-8
         2666.652     4.286954E-8
         2669.031     4.834769E-8
         2671.412     4.701907E-8
         2673.796     5.005545E-8
         2676.181     4.836834E-8
          2678.57     2.639067E-8
          2680.96     2.634222E-8
          2683.35     3.857133E-8
         2685.746     4.803784E-8
          2688.14     4.654295E-8
          2690.54     5.212808E-8
         2692.941     5.984389E-8
         2695.343     3.508491E-8
         2697.748     2.173414E-8
         2700.153     2.348640E-8
         2702.563     1.860443E-8
         2704.975     1.978394E-8
         2707.387     3.097355E-8
         2709.804     4.574197E-8
         2712.222     6.285891E-8
         2714.642     6.467284E-8
         2717.063     5.275568E-8
         2719.486     3.967676E-8
         2721.915     2.498322E-8
         2724.343     5.124744E-8
         2726.772     7.122614E-8
         2729.205     5.022716E-8
          2731.64     3.854325E-8
         2734.078     5.016144E-8
         2736.517     4.417413E-8
         2738.958     3.004884E-8
         2741.402     3.059408E-8
         2743.849     3.033514E-8
         2746.296     3.464941E-8
         2748.747     2.851225E-8
         2751.198     2.614725E-8
         2753.653     4.217182E-8
         2756.111     3.040603E-8
         2758.569     3.163243E-8
         2761.031     4.663277E-8
         2763.495     5.227683E-8
         2765.958     6.288680E-8
         2768.427     5.531814E-8
         2770.898     3.121455E-8
         2773.369     3.568108E-8
         2775.844     6.997720E-8
          2778.32     6.461228E-8
         2780.799     4.509988E-8
          2783.28     4.796846E-8
         2785.764     6.285408E-8
         2788.249     6.697564E-8
         2790.736     7.346749E-8
         2793.227     7.168149E-8
          2795.72     6.354701E-8
         2798.213     6.438234E-8
         2800.709     5.717806E-8
         2803.209     4.996122E-8
         2805.709     5.168319E-8
         2808.213     4.496695E-8
         2810.718     5.053216E-8
         2813.226     3.834062E-8
         2815.736     3.196201E-8
         2818.247     3.075042E-8
         2820.764     5.471138E-8
         2823.278     8.320794E-8
         2825.798     8.343604E-8
          2828.32     7.379703E-8
         2830.843     7.534171E-8
         2833.369     9.240782E-8
         2835.898     8.209782E-8
         2838.426     5.947385E-8
         2840.959     3.766395E-8
         2843.495     3.251693E-8
         2846.031     4.057248E-8
         2848.571     5.692014E-8
         2851.112     5.630141E-8
         2853.655     4.890225E-8
         2856.202     6.764348E-8
         2858.751     7.335034E-8
         2861.301     5.619995E-8
         2863.853     3.401347E-8
         2866.407     3.573854E-8
         2868.965     6.139158E-8
         2871.526     6.652633E-8
         2874.087     5.802631E-8
         2876.652     5.166244E-8
         2879.218     4.731909E-8
         2881.788     6.428651E-8
         2884.358     6.658725E-8
         2886.931     5.791258E-8
         2889.507     5.854228E-8
         2892.084     6.025031E-8
         2894.666     6.414208E-8
         2897.248     6.872922E-8
         2899.832     8.408090E-8
         2902.421     6.361894E-8
          2905.01     4.184809E-8
         2907.601     4.675802E-8
         2910.198     6.324861E-8
          2912.79     6.500395E-8
         2915.392     8.332909E-8
         2917.992     8.662929E-8
         2920.594     5.867003E-8
         2923.203     4.508395E-8
         2925.807     5.041995E-8
          2928.42     4.697194E-8
         2931.033     4.075798E-8
         2933.646     3.599644E-8
         2936.266     4.855143E-8
         2938.885     6.496553E-8
         2941.506     7.015937E-8
         2944.131     7.221892E-8
         2946.757     5.913649E-8
         2949.387     4.995902E-8
         2952.018     4.167761E-8
         2954.653     3.581997E-8
          2957.29     3.381369E-8
         2959.926     2.389860E-8
         2962.567     3.996510E-8
          2965.21     4.027324E-8
         2967.856     3.267912E-8
         2970.505     1.670664E-8
         2973.155     1.194599E-8
         2975.808     1.462894E-8
         2978.461     2.310975E-8
         2981.121     5.229058E-8
          2983.78     5.268112E-8
         2986.441     2.739177E-8
         2989.104     2.905468E-8
         2991.772     3.451677E-8
         2994.442     2.939906E-8
         2997.113     3.297360E-8
         2999.788     4.833470E-8
         3002.464     5.201689E-8
         3005.142     5.570654E-8
         3007.826     4.467634E-8
         3010.507     2.874159E-8
         3013.194     2.231366E-8
         3015.883     2.469462E-8
         3018.573     2.981442E-8
         3021.267     3.828350E-8
          3023.96     5.632539E-8
          3026.66     5.277829E-8
          3029.36     3.712058E-8
         3032.062     7.342707E-8
          3034.77     7.476822E-8
         3037.475     4.260449E-8
         3040.186     2.533387E-8
         3042.897     2.167453E-8
         3045.612     2.357248E-8
         3048.332     1.879101E-8
         3051.051     1.365258E-8
         3053.772     2.937874E-8
         3056.497     4.942078E-8
         3059.222     2.645028E-8
         3061.954     1.181601E-8
         3064.685     1.987035E-8
         3067.418     2.760876E-8
         3070.156     1.495513E-8
         3072.896     1.567806E-8
         3075.637     3.320310E-8
          3078.38     3.198690E-8
         3081.126     1.989627E-8
         3083.877     1.866153E-8
         3086.628     2.176830E-8
         3089.381     2.602957E-8
         3092.137     2.628598E-8
         3094.895     2.715318E-8
         3097.659     3.169140E-8
         3100.422     1.473711E-8
         3103.187     1.885964E-8
         3105.955     5.150450E-8
         3108.729     5.427421E-8
         3111.501     2.672132E-8
         3114.277     2.109877E-8
         3117.056     4.163589E-8
         3119.836     2.593376E-8
         3122.621     1.474579E-8
         3125.406     1.987498E-8
         3128.195     3.872514E-8
         3130.985     4.404292E-8
         3133.778     3.430289E-8
         3136.575     2.748287E-8
         3139.373     5.613973E-8
         3142.175     6.644892E-8
         3144.979     5.334675E-8
         3147.784     5.488242E-8
         3150.592     3.709351E-8
         3153.405     2.243168E-8
         3156.218     2.214748E-8
         3159.035     1.260725E-8
         3161.851     1.272958E-8
         3164.674     1.454974E-8
         3167.497     3.590852E-8
         3170.322     4.169699E-8
         3173.152     1.534428E-8
         3175.982     2.175324E-8
         3178.816     5.577023E-8
         3181.652     5.024266E-8
          3184.49     3.916463E-8
         3187.333     2.546434E-8
         3190.175     1.305574E-8
         3193.022     2.986539E-8
          3195.87     3.725972E-8
         3198.722     4.365249E-8
         3201.577     4.713112E-8
         3204.433     2.097762E-8
         3207.291     3.224056E-8
         3210.151     4.042239E-8
         3213.018     2.149363E-8
         3215.884     2.719012E-8
         3218.752     2.547833E-8
         3221.623     1.297255E-8
         3224.499     1.183235E-8
         3227.376     1.660870E-8
         3230.255     2.767773E-8
         3233.136     2.325736E-8
          3236.02     4.086982E-8
         3238.908     5.117298E-8
         3241.799     2.441037E-8
          3244.69     1.707900E-8
         3247.584     1.692045E-8
         3250.485     1.251708E-8
         3253.384     1.454443E-8
         3256.286     3.083618E-8
         3259.192     3.711855E-8
         3262.097     2.453280E-8
          3265.01     2.486490E-8
         3267.922     1.941408E-8
         3270.837     3.128242E-8
         3273.758     2.108932E-8
         3276.675     2.539249E-8
         3279.601     4.213840E-8
         3282.526     5.093347E-8
         3285.454     5.484577E-8
         3288.388     4.497572E-8
         3291.319     3.952595E-8
         3294.257     3.851693E-8
         3297.195     2.569176E-8
         3300.137     1.419094E-8
         3303.083     3.196874E-8
         3306.029     5.740843E-8
         3308.979     2.535458E-8
         3311.931     1.507662E-8
         3314.885     3.082766E-8
         3317.844     3.584726E-8
         3320.803     5.876852E-8
         3323.767     6.383268E-8
         3326.731     3.611567E-8
           3329.7     1.865654E-8
          3332.67     4.456674E-8
         3335.643     3.718563E-8
         3338.622     2.753532E-8
         3341.599     4.525040E-8
          3344.58     2.081284E-8
         3347.563     2.986669E-8
         3350.551     3.471252E-8
         3353.541     1.668860E-8
         3356.532     2.042980E-8
         3359.528     3.003158E-8
         3362.524     2.350414E-8
         3365.525     3.183784E-8
         3368.527     5.637045E-8
         3371.532     8.191801E-8
         3374.541     6.930741E-8
         3377.551     4.777323E-8
         3380.565     3.686699E-8
         3383.582     2.020016E-8
         3386.598     1.765093E-8
         3389.623     2.601534E-8
         3392.646     2.089129E-8
         3395.672     3.362096E-8
         3398.705     4.346173E-8
         3401.732     7.125201E-8
          3404.77     1.069244E-7
         3407.807     1.558801E-7
         3410.847     1.151863E-7
         3413.893     1.366395E-7
         3416.938     1.359495E-7
         3419.985     2.808104E-8
         3423.038     1.415506E-8
         3426.089     2.717005E-8
         3429.148     5.126140E-8
         3432.207     3.661326E-8
         3435.268     2.112941E-8
         3438.334     5.234815E-8
         3441.401     8.341714E-8
         3444.473     7.137238E-8
         3447.545     5.305661E-8
         3450.622     5.734662E-8
         3453.701     5.777732E-8
         3456.782     6.713069E-8
         3459.865     3.500522E-8
         3462.951     5.582429E-8
         3466.042     5.490916E-8
         3469.135     3.444434E-8
         3472.229     1.540285E-8
         3475.326     5.727322E-8
         3478.426     5.160090E-8
         3481.532     2.607352E-8
         3484.638     3.018382E-8
         3487.746     3.066175E-8
         3490.859     4.348333E-8
         3493.972     4.279211E-8
         3497.091     2.991147E-8
          3500.21     4.867140E-8
         3503.334     6.529406E-8
          3506.46     5.618654E-8
         3509.586     3.773265E-8
          3512.72     7.088725E-8
         3515.852     1.004585E-7
         3518.989     5.705277E-8
          3522.13     1.632591E-8
         3525.271     1.472216E-8
         3528.418     5.230349E-8
         3531.563     7.352827E-8
         3534.717     6.391885E-8
          3537.87     6.283766E-8
         3541.025     2.641986E-8
         3544.188     3.433637E-8
         3547.349     7.220630E-8
         3550.513     1.049158E-7
         3553.679     6.488990E-8
         3556.849     1.787824E-8
         3560.026     1.862512E-8
         3563.201     5.718636E-8
         3566.379     9.340597E-8
         3569.562     6.729527E-8
         3572.746     2.747066E-8
         3575.935     1.608987E-8
         3579.124     4.964409E-8
         3582.316     7.925465E-8
         3585.513     7.602763E-8
         3588.714     5.551551E-8
         3591.915     6.002604E-8
         3595.118     7.363908E-8
         3598.325     4.108070E-8
         3601.538     2.281838E-8
         3604.751     4.286576E-8
         3607.966     5.521892E-8
         3611.184     9.127157E-8
         3614.409     6.487650E-8
         3617.633     4.203425E-8
         3620.859     4.449663E-8
         3624.089     3.332131E-8
         3627.322     3.567206E-8
         3630.561     7.637021E-8
         3633.799     5.232278E-8
          3637.04     4.909945E-8
         3640.286     3.482557E-8
         3643.533     2.890512E-8
         3646.785     2.688012E-8
         3650.038     3.253246E-8
         3653.295     4.071940E-8
         3656.556     2.418200E-8
         3659.815     2.830393E-8
         3663.082     5.776090E-8
         3666.353     3.441465E-8
         3669.621     2.803183E-8
         3672.896     3.751444E-8
         3676.172     3.789580E-8
         3679.451     6.481365E-8
         3682.737     4.125189E-8
         3686.022     4.937681E-8
         3689.309     6.243130E-8
           3692.6     7.426417E-8
         3695.896     5.358708E-8
         3699.194     5.609387E-8
         3702.494     4.627418E-8
         3705.798     4.629478E-8
         3709.101     5.567400E-8
         3712.412     7.343625E-8
         3715.725     4.912993E-8
         3719.039     1.797014E-8
         3722.358     2.437117E-8
         3725.678     2.876081E-8
         3729.004     1.547114E-8
          3732.33     3.305503E-8
         3735.659     3.285309E-8
         3738.995     1.653922E-8
          3742.33     1.650846E-8
         3745.668     3.586105E-8
         3749.009     4.881268E-8
         3752.354     6.036242E-8
         3755.703     3.715034E-8
         3759.053     2.315044E-8
         3762.408     5.374218E-8
         3765.764     2.823820E-8
         3769.125     1.995107E-8
         3772.487     2.602316E-8
         3775.852     4.615838E-8
         3779.222     6.124419E-8
         3782.594     5.178182E-8
         3785.968     2.616379E-8
         3789.345     4.136150E-8
         3792.725     4.085077E-8
         3796.112     5.551808E-8
         3799.498     5.756657E-8
         3802.887     4.451299E-8
         3806.279     3.266996E-8
         3809.676     3.504563E-8
         3813.076     3.888213E-8
         3816.477     2.718551E-8
         3819.881     1.636975E-8
          3823.29     2.116308E-8
           3826.7     2.005817E-8
         3830.116     1.669457E-8
         3833.532     3.102557E-8
         3836.951     3.005957E-8
         3840.378     5.013475E-8
         3843.803     5.468642E-8
         3847.232     5.885103E-8
         3850.663     6.610944E-8
         3854.102     7.406419E-8
          3857.54     4.459002E-8
          3860.98     2.006513E-8
         3864.426     3.051775E-8
         3867.875     2.331658E-8
         3871.325     2.039822E-8
         3874.778     5.001245E-8
         3878.234     5.468509E-8
         3881.695     2.752522E-8
         3885.157     5.355194E-8
         3888.625     3.059673E-8
         3892.094     3.014014E-8
         3895.565     4.208479E-8
         3899.044     6.522963E-8
         3902.521     7.389177E-8
         3906.002     8.423640E-8
         3909.489     8.211750E-8
         3912.975     7.406221E-8
         3916.468     9.022433E-8
         3919.961     1.162361E-7
         3923.457     1.553821E-7
         3926.961     1.699535E-7
         3930.462     1.828202E-7
         3933.969     2.405448E-7
         3937.478     2.767089E-7
         3940.992     2.997986E-7
          3944.51     3.147615E-7
         3948.028     3.181762E-7
          3951.55     3.345864E-7
         3955.074     3.622798E-7
         3958.606     3.518582E-7
         3962.137     3.487609E-7
         3965.671     3.830835E-7
          3969.21     3.999699E-7
          3972.75     3.964331E-7
         3976.296     3.924771E-7
         3979.843     4.333998E-7
         3983.395     4.594341E-7
          3986.95     4.676320E-7
         3990.504     4.808518E-7
         3994.065     5.381276E-7
          3997.63     5.720095E-7
         4001.196     6.118388E-7
         4004.767     6.633785E-7
         4008.339     6.955280E-7
         4011.914     7.463853E-7
         4015.494     8.147337E-7
         4019.078     8.605440E-7
         4022.663     9.089043E-7
         4026.251     9.513320E-7
         4029.844     1.000558E-6
         4033.441     1.032911E-6
         4037.039     1.033919E-6
         4040.639     1.036260E-6
         4044.243     1.033528E-6
         4047.855     9.907501E-7
         4051.465     9.892552E-7
         4055.079     9.679929E-7
         4058.698     9.546756E-7
         4062.316     9.218003E-7
         4065.944     8.832824E-7
          4069.57     8.821698E-7
           4073.2     8.979671E-7
         4076.838     9.221342E-7
         4080.472     9.303498E-7
         4084.114     9.400547E-7
         4087.756     9.678024E-7
         4091.405     1.027681E-6
         4095.056     1.093252E-6
         4098.708     1.140778E-6
         4102.367     1.196665E-6
         4106.026     1.248325E-6
         4109.688     1.316851E-6
         4113.356     1.364890E-6
         4117.025     1.392777E-6
         4120.699     1.380332E-6
         4124.375     1.374715E-6
         4128.056     1.361199E-6
         4131.738     1.296170E-6
         4135.423     1.240050E-6
         4139.116     1.161102E-6
         4142.808     1.076521E-6
         4146.503     1.006546E-6
         4150.201     9.547172E-7
         4153.903     8.591817E-7
         4157.613     8.095709E-7
         4161.321     7.570057E-7
         4165.033     7.394520E-7
         4168.748     7.208426E-7
         4172.466     6.870689E-7
         4176.192     7.020642E-7
         4179.917     6.991098E-7
         4183.645     7.027271E-7
         4187.379     7.473452E-7
         4191.116     7.999822E-7
         4194.854     8.487782E-7
         4198.596     9.244249E-7
         4202.343     1.020793E-6
         4206.094     1.151179E-6
         4209.845     1.289035E-6
         4213.603     1.427860E-6
         4217.358     1.579577E-6
         4221.123     1.691886E-6
          4224.89     1.748373E-6
         4228.658     1.773923E-6
         4232.432     1.749146E-6
         4236.208     1.627110E-6
         4239.988     1.497860E-6
          4243.77     1.329407E-6
         4247.555     1.157651E-6
         4251.348     1.018915E-6
          4255.14     8.669369E-7
         4258.936     7.269392E-7
         4262.734     6.290938E-7
         4266.537     5.386301E-7
         4270.347     4.464411E-7
         4274.155     3.473984E-7
         4277.968     2.529345E-7
         4281.786     1.644880E-7
         4285.605     1.004246E-7
          4289.43     1.071309E-7
         4293.256     5.201486E-8
         4297.085     4.228533E-8
         4300.922     4.631202E-8
         4304.759     5.710326E-8
         4308.598     9.502115E-8
         4312.441     1.387492E-7
          4316.29     1.090322E-7
         4320.142     5.970221E-8
         4323.996     1.802186E-8
         4327.854     1.800364E-8
         4331.715     1.801890E-8
         4335.581     1.803416E-8
         4339.448     1.804943E-8
         4343.318     1.806451E-8
         4347.195     1.807959E-8
         4351.072     1.809461E-8
         4354.956     1.810948E-8
          4358.84     1.812437E-8
         4362.728     1.813940E-8
         4366.624     1.815452E-8
         4370.519     1.816960E-8
         4374.417     1.818451E-8
         4378.318     1.819942E-8
         4382.229     3.366319E-8
         4386.137     2.330706E-7
         4390.049     5.573427E-7
         4393.967     6.844133E-7
         4397.889     8.810445E-7
         4401.812     9.593185E-7
         4405.738     1.120788E-6
         4409.667     1.185925E-6
         4413.603     1.436923E-6
         4417.542     1.592032E-6
         4421.482     1.869095E-6
         4425.426     2.028800E-6
         4429.373     2.116698E-6
         4433.329     2.125846E-6
         4437.283     2.169262E-6
         4441.241     2.135686E-6
         4445.205     1.975702E-6
         4449.169     1.803630E-6
          4453.14     1.556516E-6
         4457.112     1.360743E-6
         4461.088     1.126755E-6
         4465.069     8.708112E-7
         4469.052     6.660068E-7
         4473.041     4.863532E-7
          4477.03     3.420891E-7
         4481.028     2.426115E-7
         4485.022     1.672098E-7
         4489.025     1.025232E-7
         4493.032     6.571157E-8
         4497.039     6.279429E-8
         4501.053     5.627779E-8
         4505.067     4.113812E-8
         4509.086     4.609688E-8
         4513.107     4.659910E-8
         4517.136     4.574735E-8
         4521.167     5.388901E-8
           4525.2     6.592336E-8
         4529.238     6.393123E-8
         4533.281     4.710603E-8
         4537.324     5.661112E-8
         4541.371     5.125028E-8
         4545.422     4.317985E-8
         4549.479     5.550377E-8
         4553.539     6.118405E-8
           4557.6     4.368895E-8
         4561.668     5.528805E-8
         4565.734     7.459921E-8
         4569.809     6.730981E-8
         4573.887     4.740853E-8
         4577.967     5.468046E-8
         4582.053     5.648620E-8
         4586.142     5.673844E-8
         4590.233     6.232875E-8
         4594.327     5.536786E-8
         4598.425     6.553919E-8
         4602.529     4.826138E-8
         4606.637     4.077809E-8
         4610.746     3.495407E-8
          4614.86     4.536881E-8
         4618.979     5.251726E-8
         4623.097     4.854184E-8
         4627.223     3.676974E-8
          4631.35     4.605191E-8
         4635.483     5.024194E-8
         4639.621     5.512040E-8
         4643.759     5.721260E-8
           4647.9     5.041482E-8
         4652.046     7.317674E-8
         4656.198     6.875944E-8
         4660.354     5.124577E-8
         4664.511     5.980211E-8
         4668.673     5.628663E-8
          4672.84     6.739887E-8
         4677.005     7.085053E-8
          4681.18     6.659108E-8
         4685.355     6.689433E-8
         4689.537     7.129336E-8
         4693.722     6.120144E-8
         4697.909     5.437205E-8
         4702.102     4.627523E-8
         4706.293     6.220537E-8
         4710.493     6.556114E-8
         4714.697     6.294024E-8
         4718.902     5.826801E-8
         4723.114     6.429107E-8
          4727.33     5.303553E-8
         4731.543     5.915489E-8
         4735.766     5.417283E-8
          4739.99     5.366029E-8
         4744.221     6.168079E-8
         4748.455     6.496546E-8
          4752.69     7.165793E-8
         4756.932     6.048927E-8
         4761.172     5.853066E-8
         4765.421     5.421144E-8
         4769.674     6.386058E-8
         4773.929     6.946605E-8
         4778.189     7.256440E-8
         4782.454     6.724939E-8
         4786.719     7.226204E-8
         4790.989     5.382415E-8
         4795.262     5.294574E-8
         4799.542     6.258287E-8
         4803.826     6.665838E-8
          4808.11     6.330109E-8
         4812.401     5.700584E-8
         4816.696     5.871966E-8
         4820.993     5.585994E-8
         4825.292     6.765733E-8
         4829.597     6.768877E-8
         4833.907     7.364878E-8
         4838.221     5.996664E-8
         4842.537     6.384577E-8
         4846.855     6.305111E-8
         4851.179     6.160104E-8
         4855.508     7.172212E-8
         4859.842     6.643711E-8
         4864.177     6.458315E-8
         4868.518     7.023735E-8
         4872.863     6.850708E-8
         4877.209     5.746534E-8
          4881.56     6.286655E-8
         4885.914     7.155441E-8
         4890.277     6.444024E-8
         4894.639     7.105200E-8
         4899.004     7.066252E-8
         4903.376     6.530662E-8
         4907.748     5.448560E-8
          4912.13     6.421367E-8
         4916.512     6.872715E-8
         4920.897     5.924069E-8
         4925.289     6.960381E-8
         4929.685     7.428375E-8
         4934.082     6.506842E-8
         4938.482     6.261861E-8
         4942.887     5.785391E-8
         4947.301     7.678783E-8
         4951.714     7.451394E-8
         4956.131     6.805239E-8
         4960.554     7.212849E-8
         4964.976     6.785265E-8
          4969.41     6.791130E-8
         4973.842     5.316888E-8
         4978.278     6.676635E-8
         4982.724     7.635153E-8
         4987.168     6.921750E-8
         4991.617     6.900883E-8
         4996.069     7.552654E-8
         5000.528     7.574275E-8
         5004.991     6.971658E-8
         5009.455     6.425105E-8
         5013.923     4.547797E-8
         5018.398     6.971197E-8
         5022.874     7.054423E-8
         5027.357     6.965632E-8
         5031.841     7.808821E-8
         5036.329     5.775462E-8
         5040.827     6.480547E-8
         5045.323     8.131693E-8
         5049.823     7.809970E-8
         5054.327     6.594562E-8
         5058.838     7.515665E-8
         5063.353     7.929267E-8
         5067.869     7.279758E-8
          5072.39     6.969284E-8
         5076.919     6.076623E-8
         5081.448     6.564304E-8
          5085.98     6.461217E-8
         5090.516     7.945988E-8
          5095.06     7.581644E-8
         5099.607     8.337564E-8
         5104.155     8.014842E-8
         5108.708     8.059194E-8
         5113.265     1.008083E-7
         5117.828     7.015963E-8
         5122.396     9.250286E-8
         5126.965     9.172106E-8
         5131.538     9.522932E-8
          5136.12     9.034149E-8
         5140.701     8.537545E-8
         5145.287     8.681963E-8
         5149.876     9.235272E-8
         5154.472     9.382146E-8
         5159.072     8.974770E-8
         5163.674     9.188508E-8
         5168.283     1.136621E-7
         5172.895     1.137245E-7
         5177.506     1.238825E-7
         5182.127     1.404831E-7
         5186.749     1.758800E-7
         5191.378     2.200106E-7
         5196.012     2.883673E-7
         5200.646     3.193691E-7
         5205.285     3.964054E-7
         5209.928     5.845965E-7
         5214.577     8.025960E-7
         5219.231     1.127321E-6
         5223.887     1.584442E-6
         5228.549     2.229421E-6
         5233.215     3.072179E-6
          5237.88     4.207656E-6
         5242.555     5.526837E-6
         5247.231     6.994745E-6
         5251.914     8.566514E-6
         5256.601     1.007958E-5
          5261.29     1.161964E-5
         5265.985     1.320764E-5
          5270.68     1.500552E-5
         5275.383     1.729105E-5
         5280.092     2.040016E-5
         5284.801     2.463220E-5
         5289.518     3.050688E-5
         5294.239     3.846538E-5
         5298.958     4.931244E-5
         5303.687     6.402289E-5
         5308.418     8.459781E-5
         5313.155     1.126819E-4
         5317.897     1.506915E-4
         5322.641     2.032685E-4
         5327.391     2.748993E-4
          5332.14     3.703244E-4
         5336.899     4.946043E-4
         5341.662     6.539618E-4
         5346.426     8.129625E-4
         5351.198     9.792085E-4
         5355.974       0.0011466
         5360.751     0.001315044
         5365.532      0.00148463
         5370.318     0.001769544
         5375.111     0.002222484
         5379.908     0.002765683
         5384.707       0.0034151
         5389.513     0.004179415
         5394.323     0.005052598
         5399.131     0.006065147
          5403.95     0.007209446
          5408.77     0.008500556
         5413.597     0.009927993
         5418.429       0.0115164
         5423.262      0.01324004
         5428.099      0.01511017
          5432.94      0.01711549
         5437.792      0.01926315
         5442.643      0.02155401
         5447.497      0.02395008
         5452.359      0.02651485
         5457.225      0.02917514
         5462.092      0.03195472
         5466.964      0.03483919
          5471.84      0.03777723
         5476.724      0.04077147
         5481.612      0.04380792
         5486.501       0.0468919
         5491.398      0.04993585
         5496.293      0.05292859
         5501.198      0.05588807
         5506.108      0.05881839
         5511.019      0.06174614
         5515.938      0.06456863
          5520.86      0.06727274
         5525.785      0.06992655
         5530.713      0.07251439
         5535.646      0.07496238
         5540.587      0.07731778
         5545.532      0.07955764
         5550.478      0.08165638
         5555.432      0.08363345
         5560.387      0.08552662
         5565.347      0.08733889
         5570.313      0.08908062
         5575.282      0.09071022
         5580.258      0.09230273
         5585.238      0.09383847
          5590.22       0.0952911
         5595.206      0.09672516
         5600.197      0.09808335
         5605.198        0.099276
         5610.197       0.1003944
         5615.201         0.10149
         5620.213       0.1025366
         5625.226       0.1035709
         5630.246       0.1045941
         5635.268       0.1055645
         5640.294       0.1065497
         5645.328       0.1075742
         5650.367       0.1085708
         5655.406       0.1095788
         5660.451       0.1105466
         5665.502        0.111504
         5670.559       0.1124537
         5675.617       0.1133822
         5680.679       0.1143077
         5685.752       0.1152201
         5690.823        0.116125
         5695.899       0.1171003
         5700.979       0.1182083
         5706.064       0.1190724
          5711.16       0.1199963
         5716.254       0.1208924
         5721.353       0.1217396
         5726.456       0.1225349
         5731.567       0.1233559
         5736.682       0.1241245
         5741.799       0.1248694
          5746.92       0.1255759
         5752.053       0.1262725
         5757.183       0.1269515
         5762.318       0.1276527
         5767.458       0.1282597
         5772.602       0.1288377
         5777.757       0.1293748
         5782.911       0.1298867
         5788.068       0.1304013
         5793.237        0.130851
         5798.401       0.1312478
         5803.577       0.1316615
         5808.753       0.1320482
         5813.937       0.1323826
         5819.126       0.1327127
         5824.316       0.1329687
         5829.511       0.1331894
         5834.711       0.1334392
         5839.918       0.1336939
          5845.13       0.1339186
         5850.344       0.1341408
         5855.562       0.1343125
         5860.792       0.1345241
         5866.016       0.1347433
         5871.251       0.1348942
         5876.488       0.1350802
         5881.732       0.1352913
         5886.982       0.1355025
         5892.232       0.1356692
         5897.491       0.1358288
         5902.749       0.1360308
         5908.017       0.1361762
          5913.29        0.136403
         5918.563       0.1365918
         5923.846       0.1368273
         5929.133       0.1370256
         5934.421       0.1372964
         5939.714       0.1375101
         5945.012       0.1377382
         5950.318       0.1379812
         5955.629        0.138207
         5960.941       0.1384811
         5966.258       0.1387727
         5971.579       0.1390417
         5976.909       0.1392659
         5982.243       0.1395238
         5987.579       0.1397936
         5992.923       0.1400319
         5998.271       0.1402422
         6003.622       0.1403557
         6008.976       0.1404198
         6014.336       0.1404708
         6019.704       0.1405494
         6025.076       0.1406243
          6030.45        0.140669
         6035.832       0.1407226
         6041.219       0.1407038
         6046.604        0.140686
         6052.001       0.1406982
         6057.399       0.1406474
         6062.805       0.1406038
         6068.216       0.1405414
         6073.628       0.1404745
         6079.046       0.1403858
         6084.468       0.1402974
         6089.898       0.1402313
         6095.333       0.1400851
          6100.77       0.1399821
         6106.215       0.1398802
         6111.665       0.1397357
         6117.112       0.1395974
         6122.572       0.1394448
         6128.033        0.139256
         6133.502       0.1390557
         6138.976       0.1388406
         6144.452       0.1386598
         6149.936       0.1384865
         6155.417       0.1383315
         6160.911       0.1381931
          6166.41       0.1380518
          6171.91       0.1379692
         6177.418       0.1378889
         6182.932       0.1377707
         6188.443       0.1376841
         6193.966       0.1375984
         6199.491       0.1375011
         6205.024       0.1374107
         6210.562       0.1372909
         6216.101       0.1372067
         6221.649       0.1371739
         6227.195       0.1371808
         6232.756       0.1371687
         6238.315       0.1371688
         6243.879       0.1372045
         6249.452       0.1373048
         6255.029       0.1374199
         6260.608       0.1375457
         6266.193       0.1376486
         6271.782       0.1377771
         6277.379       0.1379517
         6282.982       0.1381324
         6288.586       0.1382725
         6294.198       0.1384288
         6299.809       0.1386264
         6305.435       0.1387858
         6311.059        0.138944
         6316.688       0.1392271
         6322.326       0.1394219
         6327.968       0.1396315
         6333.612       0.1398412
         6339.262       0.1401101
         6344.916       0.1403031
         6350.579       0.1405257
         6356.247       0.1407005
         6361.916       0.1408529
         6367.594        0.141129
         6373.277       0.1413474
         6378.961       0.1415742
         6384.651       0.1417602
         6390.346       0.1419391
         6396.049       0.1420563
         6401.757       0.1421345
         6407.467       0.1421566
         6413.183       0.1421385
         6418.906       0.1421379
         6424.631       0.1420774
         6430.365       0.1421318
         6436.104       0.1421161
         6441.845       0.1420617
         6447.594       0.1420063
         6453.345        0.141926
         6459.101        0.141813
         6464.866       0.1416724
         6470.632       0.1415328
         6476.407        0.141352
         6482.184       0.1411744
         6487.969       0.1409549
         6493.756       0.1407175
         6499.548       0.1405454
         6505.349       0.1402288
         6511.154       0.1399203
         6516.962       0.1395618
         6522.778       0.1389177
         6528.596       0.1383205
         6534.419       0.1383091
         6540.251       0.1382256
         6546.088        0.137705
         6551.927       0.1372295
         6557.771       0.1366845
         6563.624       0.1361328
         6569.478       0.1355893
         6575.341       0.1349859
         6581.206       0.1343655
          6587.08       0.1337254
         6592.955       0.1330152
         6598.839       0.1323004
         6604.729       0.1314784
         6610.616       0.1306078
         6616.516       0.1296436
         6622.421       0.1286195
         6628.328        0.127564
         6634.244         0.12643
         6640.165       0.1252521
         6646.087        0.123982
         6652.015       0.1226029
         6657.948       0.1211269
         6663.891       0.1194478
         6669.838       0.1176477
         6675.787        0.115645
         6681.745       0.1135577
         6687.701       0.1114463
          6693.67       0.1093359
         6699.644       0.1073388
          6705.62       0.1055091
         6711.604       0.1038628
         6717.594       0.1024085
         6723.586       0.1012353
         6729.583       0.1002968
         6735.585      0.09957743
         6741.597      0.09896961
         6747.613      0.09847382
         6753.632      0.09801501
          6759.66      0.09751792
         6765.692      0.09712081
         6771.723      0.09692376
         6777.767      0.09703161
         6783.813      0.09753256
         6789.867       0.0985776
         6795.927       0.1001188
         6801.988         0.10226
         6808.055       0.1049481
         6814.127       0.1080813
         6820.209       0.1114396
         6826.296       0.1150366
         6832.385       0.1183259
         6838.482       0.1207614
         6844.586       0.1218374
         6850.687       0.1210189
         6856.801       0.1177381
         6862.917       0.1118997
         6869.042       0.1036969
         6875.173        0.093458
         6881.305      0.08214777
         6887.446      0.07038614
         6893.586      0.05905505
         6899.738        0.048789
         6905.896      0.03972737
         6912.056      0.03207836
         6918.225      0.02596918
         6924.399      0.02093026
         6930.572      0.01693698
         6936.757      0.01379482
         6942.944      0.01130236
         6949.141     0.009306616
         6955.343     0.007704321
         6961.546     0.006408026
          6967.76     0.005347728
         6973.971      0.00449694
         6980.195     0.004034822
         6986.424     0.003712897
         6992.656     0.003392124
         6998.897     0.003049877
         7005.143     0.002609432
         7011.392     0.002233817
         7017.645     0.001916152
         7023.904     0.001643845
         7030.173     0.001412715
         7036.448     0.001215544
         7042.724     0.001048585
         7049.009     9.067409E-4
         7055.292     7.982069E-4
         7061.589     6.959023E-4
         7067.892     6.092144E-4
         7074.196     5.381788E-4
          7080.51     4.783696E-4
         7086.829     4.278801E-4
          7093.15     3.841735E-4
         7099.477     3.456992E-4
         7105.809     3.121765E-4
         7112.151     2.814581E-4
         7118.498     2.538210E-4
         7124.848     2.285035E-4
         7131.207     2.052740E-4
         7137.571     1.845233E-4
         7143.933     1.662456E-4
         7150.309     1.490916E-4
         7156.687     1.338670E-4
         7163.074     1.201193E-4
         7169.467     1.077491E-4
         7175.862     9.675007E-5
         7182.262     8.758823E-5
         7188.668     7.949487E-5
         7195.084     7.268501E-5
         7201.506     6.668586E-5
         7207.929     6.169572E-5
         7214.362     5.705465E-5
         7220.801     5.299706E-5
         7227.237     4.918957E-5
         7233.688     4.577459E-5
         7240.144     4.250773E-5
         7246.601     3.933749E-5
         7253.069     3.644068E-5
         7259.538     3.389483E-5
         7266.017     3.149512E-5
         7272.498     2.925050E-5
         7278.989     2.694316E-5
         7285.481     2.503172E-5
         7291.979     2.316817E-5
         7298.487     2.142811E-5
         7305.001     1.986330E-5
         7311.517     1.854597E-5
         7318.038     1.720822E-5
         7324.569     1.603813E-5
         7331.103     1.498839E-5
         7337.646     1.400259E-5
          7344.19     1.304665E-5
         7350.745     1.223486E-5
         7357.301     1.162543E-5
         7363.867     1.103345E-5
         7370.436     1.041644E-5
         7377.014     9.973932E-6
         7383.593     9.533096E-6
         7390.183     9.069989E-6
         7396.775     8.605631E-6
         7403.372     8.206403E-6
         7409.979     7.933057E-6
         7416.589     7.410073E-6
         7423.208     7.116099E-6
         7429.829     6.790286E-6
          7436.46     6.341531E-6
         7443.097     5.983534E-6
         7449.736     5.616028E-6
         7456.381     5.307373E-6
         7463.036     4.978075E-6
         7469.692     4.678870E-6
         7476.359     4.408927E-6
         7483.027     4.225034E-6
         7489.702     3.977646E-6
         7496.386     3.832118E-6
         7503.077     3.861997E-6
         7509.769     3.720547E-6
         7516.471     3.565671E-6
         7523.175     3.391101E-6
          7529.89     3.426028E-6
         7536.606     3.277994E-6
         7543.328     3.043812E-6
         7550.061     3.065687E-6
         7556.794     2.895206E-6
         7563.539     2.873072E-6
          7570.29     2.696542E-6
         7577.042     2.572948E-6
           7583.8     2.458433E-6
         7590.568     2.363863E-6
         7597.339     2.187381E-6
         7604.119     2.049048E-6
         7610.906     2.009022E-6
         7617.694     1.926091E-6
         7624.489     1.958678E-6
          7631.29     1.941541E-6
           7638.1     1.781435E-6
         7644.917     1.827700E-6
         7651.736     1.745339E-6
         7658.565     1.766451E-6
         7665.396     1.649503E-6
         7672.233     1.656763E-6
         7679.081     1.679931E-6
          7685.93     1.528112E-6
          7692.79     1.522329E-6
         7699.655     1.439993E-6
         7706.523     1.410090E-6
         7713.401     1.477747E-6
         7720.276     1.504179E-6
         7727.167     1.401767E-6
         7734.063     1.456218E-6
         7740.961     1.380789E-6
          7747.87     1.333806E-6
         7754.785     1.416762E-6
         7761.697     1.320057E-6
         7768.625     1.315369E-6
         7775.554     1.207105E-6
         7782.494     1.220025E-6
         7789.439     1.233659E-6
         7796.387     1.237297E-6
         7803.345     1.119564E-6
         7810.301     1.025149E-6
         7817.271     1.082077E-6
         7824.249     9.319670E-7
         7831.227     1.087715E-6
         7838.216     1.146336E-6
         7845.212     9.968106E-7
         7852.209     1.162988E-6
         7859.213     1.057121E-6
         7866.223     1.006284E-6
         7873.244     1.063332E-6
         7880.271     1.089871E-6
         7887.299     1.077536E-6
         7894.338     1.000258E-6
         7901.375     1.011454E-6
         7908.427     1.048603E-6
         7915.485     9.637478E-7
         7922.545     9.302250E-7
         7929.616     8.308836E-7
         7936.693     8.467992E-7
         7943.772     8.105575E-7
         7950.858     6.596004E-7
          7957.95     7.021895E-7
         7965.052     6.036144E-7
         7972.161     7.046883E-7
         7979.271     5.888159E-7
         7986.393     8.349767E-7
         7993.521     9.162367E-7
         8000.646     3.492605E-8
         8007.786     3.236340E-8
         8014.929     2.431634E-8
         8022.082     2.935146E-8
         8029.242     2.831156E-8
         8036.403     2.825160E-8
         8043.576     4.352282E-7
         8050.746     1.317204E-7
         8057.931     8.202571E-8
         8065.123     1.990809E-7
         8072.316     1.596571E-7
         8079.521     4.515528E-8
         8086.731     2.326563E-8
          8093.94     2.313390E-8
         8101.164     8.034382E-7
         8108.389     2.822379E-8
         8115.626     6.857996E-8
         8122.869     1.476172E-7
         8130.114     6.018862E-8
          8137.37     5.003410E-8
         8144.628     4.803893E-8
         8151.893     2.445865E-8
         8159.168     1.122439E-7
         8166.446     2.424699E-8
         8173.734     1.687789E-7
         8181.029     6.655286E-8
         8188.326     1.111607E-7
          8195.63     3.522045E-8
         8202.939     1.934616E-7
         8210.261     2.863988E-7
         8217.588     4.466996E-8
         8224.918     1.098886E-7
         8232.259     4.102577E-8
         8239.602     3.421006E-7
          8246.95     7.551565E-8
         8254.311     1.504063E-7
         8261.673     2.825773E-7
         8269.047     3.290298E-8
         8276.427     9.537361E-8
         8283.809     6.396624E-7
         8291.197     1.915429E-7
         8298.597     5.484964E-8
         8305.999     1.894870E-7
         8313.412     7.593225E-8
         8320.827     7.326040E-8
         8328.253     5.914276E-7
         8335.687     2.209546E-7
         8343.121     1.726421E-7
         8350.563     3.899644E-7
         8358.011     2.972614E-8
         8365.471     3.431527E-7
         8372.937     7.553506E-8
         8380.409     7.801744E-7
         8387.879     3.297051E-8
         8395.365     5.045310E-7
         8402.854     1.595185E-7
         8410.353     1.663465E-7
         8417.859     2.345837E-8
         8425.367     3.794674E-7
         8432.887     2.804276E-7
         8440.408     1.955045E-7
         8447.937     5.790193E-7
         8455.477     5.742954E-7
         8463.019     9.453250E-7
         8470.571     7.086181E-7
         8478.127     5.031262E-7
         8485.693     1.188411E-6
         8493.262     1.068686E-6
         8500.842     8.942790E-7
         8508.425     8.518329E-7
         8516.019     7.265868E-7
         8523.614     9.984002E-7
         8531.221     3.784280E-7
          8538.83     1.519295E-6
         8546.446     8.908906E-7
         8554.074     1.126053E-6
         8561.704     1.141059E-6
         8569.345     1.343623E-6
         8576.993     1.840798E-6
         8584.644     1.880267E-6
         8592.301     1.466546E-6
         8599.969     2.448110E-6
          8607.64     2.509625E-6
         8615.321     1.724782E-6
         8623.006     2.592970E-6
         8630.702     2.017224E-6
         8638.405     3.045898E-6
         8646.105     1.724948E-6
         8653.821     3.562322E-6
          8661.54     2.319588E-6
         8669.271     2.632677E-6
         8677.008     2.858805E-6
         8684.747     2.971263E-6
         8692.493     3.201494E-6
         8700.251     3.100961E-6
         8708.012     3.888386E-6
         8715.783     3.984846E-6
         8723.563     3.100326E-6
         8731.343     4.002618E-6
         8739.136     4.375893E-6
         8746.926     3.613571E-6
         8754.732     3.910895E-6
         8762.546     3.625502E-6
         8770.361     4.331452E-6
         8778.188     4.500707E-6
         8786.019     4.121874E-6
         8793.859     4.757650E-6
         8801.703     4.701386E-6
         8809.554     4.757683E-6
         8817.416     4.316058E-6
         8825.286     4.525343E-6
         8833.157     4.291855E-6
         8841.041     3.887008E-6
         8848.922     3.859031E-6
         8856.819     4.868917E-6
         8864.724     4.645628E-6
         8872.631     4.504507E-6
          8880.55     4.083817E-6
         8888.476     4.227047E-6
         8896.403     4.212563E-6
         8904.338     4.503070E-6
          8912.28     4.706687E-6
         8920.234     4.856267E-6
         8928.195     4.776576E-6
         8936.159     5.334444E-6
         8944.135     5.153935E-6
         8952.117     5.031094E-6
         8960.097     5.424248E-6
         8968.094     5.582093E-6
         8976.093     5.504773E-6
         8984.104     5.581783E-6
         8992.122     5.636045E-6
         9000.143     6.228899E-6
         9008.175     5.619485E-6
         9016.205     5.736818E-6
         9024.252     5.452580E-6
         9032.306     5.584267E-6
         9040.362     5.619189E-6
         9048.431     5.240934E-6
         9056.506     5.851259E-6
         9064.579     5.740555E-6
         9072.669     5.780555E-6
         9080.761     5.279619E-6
         9088.865     5.788778E-6
         9096.978     6.227768E-6
         9105.092     5.982659E-6
         9113.218     5.978500E-6
         9121.341     6.468963E-6
         9129.481     6.586806E-6
          9137.63     6.678963E-6
          9145.78     6.556891E-6
         9153.942     7.304194E-6
         9162.112     6.672705E-6
         9170.284     6.577618E-6
         9178.464     6.587195E-6
         9186.655     6.360936E-6
         9194.849     7.119354E-6
         9203.056     7.066284E-6
         9211.264     6.134816E-6
         9219.485     6.497699E-6
         9227.708     6.000554E-6
         9235.938     5.437343E-6
         9244.182     5.339697E-6
         9252.427     5.056699E-6
         9260.685     4.444903E-6
         9268.949     4.722219E-6
         9277.217     4.314877E-6
         9285.492     4.088472E-6
         9293.779     3.438650E-6
         9302.068     3.923700E-6
          9310.37     3.325129E-6
         9318.675     3.191834E-6
         9326.991     3.084773E-6
         9335.315     3.218805E-6
         9343.637     2.784385E-6
         9351.977     2.370717E-6
         9360.317     2.402782E-6
         9368.672     2.496081E-6
         9377.033     2.249583E-6
         9385.396     2.071916E-6
         9393.768     2.120115E-6
         9402.152     2.072954E-6
         9410.538     1.951248E-6
         9418.937     1.716928E-6
         9427.338     1.743434E-6
         9435.752     1.702536E-6
         9444.173     1.437106E-6
         9452.592     1.519928E-6
         9461.028     1.536792E-6
         9469.472     1.271352E-6
         9477.918     1.346548E-6
         9486.377     1.059355E-6
         9494.838     8.409317E-7
         9503.313     9.121833E-7
         9511.788     9.459928E-7
         9520.272     1.219688E-6
          9528.77     7.664837E-7
         9537.269     8.320513E-7
          9545.78     4.865369E-7
           9554.3     5.339758E-7
         9562.821     7.196819E-7
         9571.351     6.071679E-7
         9579.894     3.631374E-7
         9588.438     5.261782E-7
         9596.995     6.766631E-7
         9605.561     3.601683E-7
         9614.128     3.344038E-7
         9622.704     2.273694E-7
         9631.286     4.880424E-7
         9639.882     2.702637E-7
         9648.485     4.733836E-7
         9657.092     4.696267E-7
         9665.711     5.196334E-7
         9674.332     4.846980E-7
         9682.961     8.088628E-8
         9691.603     2.885731E-7
         9700.252     4.256918E-7
         9708.904     1.734277E-7
         9717.569     2.271305E-7
         9726.237     2.120609E-7
         9734.912     1.829142E-7
         9743.601     1.680480E-7
         9752.291     1.829157E-7
         9760.995     2.708022E-7
         9769.701     1.976629E-7
         9778.421     1.705183E-7
         9787.147     8.020346E-8
         9795.872     3.273535E-7
         9804.614     2.971083E-8
         9813.359     1.704183E-7
         9822.118     7.298123E-8
         9830.884     6.495590E-8
         9839.652     4.515787E-8
         9848.435     7.932917E-9
         9857.219     5.030338E-8
         9866.011     2.216178E-8
         9874.816     1.374637E-7
         9883.624     3.874290E-8
         9892.444     4.582749E-9
         9901.273     5.232859E-8
         9910.104     2.410723E-7
         9918.944     5.111012E-8
         9927.791     8.339142E-8
         9936.651     9.493603E-8
         9945.521     5.576257E-8
         9954.391     2.158240E-8
         9963.275     1.089902E-8
         9972.162     1.259762E-7
         9981.057     2.183775E-7
         9989.964     1.266846E-7
          9998.88     1.237234E-7
          10007.8     4.349201E-8
         10016.72     3.339475E-8
         10025.67     3.904924E-8
          10034.6     4.723821E-9
         10043.56     3.405713E-8
         10052.52     4.291318E-8
         10061.49     1.445000E-8
         10070.47     8.710325E-8
         10079.46     2.225345E-8
         10088.45     3.521986E-8
         10097.44     1.541004E-8
         10106.46     3.942878E-8
         10115.48     2.186357E-8
          10124.5     2.375661E-8
         10133.53     4.876350E-8
         10142.58     6.121680E-8
         10151.62     1.739517E-9
         10160.68     3.482677E-8
         10169.74     1.275474E-8
         10178.81     1.709017E-8
          10187.9     3.328025E-8
         10196.99     6.045588E-9
         10206.08     3.326623E-8
         10215.19     6.634176E-8
         10224.31     1.969850E-8
         10233.43     5.031547E-8
         10242.56     1.319054E-8
         10251.69     7.689435E-8
         10260.85     6.585215E-8
           10270.     4.143767E-9
         10279.16     2.446363E-8
         10288.33     6.013617E-9
         10297.51     1.359238E-8
          10306.7     5.856836E-8
         10315.89     1.172574E-8
          10325.1     1.829707E-9
          10334.3     2.490624E-8
         10343.53     1.301128E-8
         10352.76     2.411306E-8
         10361.99     3.718729E-9
         10371.25     2.166836E-8
          10380.5    7.507007E-10
         10389.76     8.073492E-9
         10399.02     1.766290E-8
          10408.3     5.244978E-9
         10417.59     4.186389E-9
         10426.89     2.291405E-8
         10436.19     1.641487E-8
         10445.49     1.197259E-8
         10454.82     1.759477E-8
         10464.15     1.397309E-8
         10473.48     6.122602E-9
         10482.82    8.149518E-10
         10492.17     1.626493E-8
         10501.54     1.838229E-9
         10510.91    5.717195E-10
         10520.29     7.811400E-9
         10529.67     3.043832E-9
         10539.07     1.217377E-8
         10548.47     1.040329E-8
         10557.88     6.991931E-9
         10567.31     1.391916E-8
         10576.73     1.665208E-8
         10586.17     1.499905E-9
         10595.61     1.505895E-8
         10605.06     8.541190E-9
         10614.53     7.082726E-9
           10624.     1.278039E-8
         10633.48     1.091413E-8
         10642.96     7.453923E-9
         10652.45     5.586607E-9
         10661.97     3.971912E-9
         10671.48     1.023032E-8
         10680.99     1.005861E-8
         10690.53     7.741367E-9
         10700.07     5.408587E-9
         10709.61     2.741501E-9
         10719.16     1.164088E-8
         10728.72     8.342179E-9
         10738.31     6.085031E-9
         10747.88     6.895255E-9
         10757.47     1.027168E-8
         10767.08     8.561933E-9
         10776.67     6.342020E-9
         10786.29     5.045359E-9
         10795.91     2.480059E-9
         10805.54     9.415710E-9
         10815.18     7.542792E-9
         10824.83     7.238774E-9
         10834.49     6.982332E-9
         10844.17     7.227757E-9
         10853.84     6.639736E-9
         10863.52     1.120153E-8
         10873.21     1.265615E-8
         10882.91     8.274180E-9
         10892.63     9.447271E-9
         10902.35     9.931146E-9
         10912.07     1.009700E-8
         10921.81     1.046940E-8
         10931.54     9.496741E-9
         10941.31     9.092815E-9
         10951.07     8.419255E-9
         10960.83     8.540649E-9
         10970.62     6.944672E-9
         10980.39     7.149716E-9
          10990.2     8.037820E-9
           11000.     6.950280E-9
