#  Table pcf791wsys.tab  Mon 12:21:20 02-Jun-97

#      WAVELENGTH      THROUGHPUT
#       angstroms                

            1850.     2.456794E-7
         1851.651     2.118467E-7
         1853.301     1.777087E-7
         1854.956     1.431649E-7
         1856.611     1.083252E-7
         1858.267     7.313970E-8
         1859.925     3.758549E-8
         1861.584     5.462412E-8
         1863.246     7.434975E-8
         1864.909     9.426903E-8
         1866.572     1.143682E-7
         1868.237     1.346628E-7
         1869.904     1.551644E-7
         1871.573     2.261930E-7
         1873.242     3.009640E-7
         1874.913     3.764609E-7
         1876.585     4.526931E-7
          1878.26     5.297208E-7
         1879.937     6.072522E-7
         1881.613     6.751996E-7
         1883.292     7.433216E-7
         1884.973     8.120475E-7
         1886.654     8.812991E-7
         1888.338     9.511642E-7
         1890.023     1.021942E-6
         1891.709     1.118243E-6
         1893.396     1.215349E-6
         1895.086     1.313314E-6
         1896.775     1.411963E-6
         1898.469     1.511603E-6
         1900.163     1.590786E-6
         1901.857     1.471058E-6
         1903.555     1.350098E-6
         1905.254     1.228047E-6
         1906.953     1.104990E-6
         1908.655     9.807649E-7
         1910.357     8.553252E-7
         1912.061     7.280344E-7
         1913.768     5.995455E-7
         1915.476     4.699183E-7
         1917.184     3.392333E-7
         1918.894     2.074036E-7
         1920.606     1.145854E-7
          1922.32     9.460035E-8
         1924.035     7.443925E-8
         1925.752     5.411171E-8
          1927.47     3.359547E-8
         1929.189     1.291183E-8
          1930.91     1.744367E-8
         1932.634     4.475666E-8
         1934.358     7.230557E-8
         1936.084     1.000734E-7
         1937.811     1.280823E-7
          1939.54     1.563473E-7
          1941.27     1.945364E-7
         1943.003     2.366079E-7
         1944.737     2.790401E-7
          1946.47     3.217797E-7
         1948.207     3.649332E-7
         1949.947     4.084753E-7
         1951.685     3.503145E-7
         1953.427     2.883430E-7
         1955.171     2.258271E-7
         1956.913     1.628404E-7
          1958.66     9.922665E-8
         1960.408     5.161138E-8
         1962.157     5.820891E-8
         1963.908     6.486631E-8
         1965.658     7.157124E-8
         1967.413     7.834017E-8
         1969.169     8.516587E-8
         1970.925     8.512608E-8
         1972.684     7.883359E-8
         1974.444     7.248837E-8
         1976.205     6.608630E-8
         1977.969     5.961958E-8
         1979.734     5.310322E-8
           1981.5     4.500448E-8
         1983.268     3.655733E-8
         1985.037     2.804120E-8
         1986.809     1.944647E-8
         1988.581     1.078298E-8
         1990.355     4.413037E-9
         1992.131     7.507362E-9
         1993.908     1.062795E-8
         1995.688     1.377879E-8
         1997.467     1.695022E-8
          1999.25     2.015208E-8
         2001.034     2.446888E-8
         2002.818     2.961413E-8
         2004.606     3.481908E-8
         2006.396     4.007163E-8
         2008.184     4.536794E-8
         2009.976     5.072166E-8
         2011.769     4.875491E-8
         2013.565     4.666688E-8
         2015.362     4.455663E-8
         2017.158     4.242682E-8
         2018.958     4.027211E-8
          2020.76     3.718655E-8
         2022.563     3.282143E-8
         2024.368     2.840970E-8
         2026.173     2.395714E-8
         2027.982     1.945750E-8
         2029.791     1.491632E-8
         2031.602     1.265053E-8
         2033.414     1.066862E-8
         2035.228     8.667281E-9
         2037.044     6.645183E-9
         2038.861     4.604681E-9
         2040.681     3.493360E-9
         2042.502     3.968513E-9
         2044.324     4.447815E-9
         2046.147     4.931511E-9
         2047.974     5.419978E-9
           2049.8     5.912621E-9
          2051.63     6.882414E-9
         2053.461     7.919359E-9
         2055.291     8.964598E-9
         2057.125     1.002055E-8
         2058.961     1.108615E-8
         2060.798     1.124367E-8
         2062.637     1.020187E-8
         2064.477     9.150861E-9
         2066.318     8.090035E-9
         2068.164     7.017925E-9
         2070.007     5.946397E-9
         2071.855     7.117953E-9
         2073.704     8.299797E-9
         2075.553     9.491345E-9
         2077.405     1.069326E-8
         2079.259     1.190671E-8
         2081.113     2.416694E-8
         2082.971     4.393243E-8
         2084.829     6.385856E-8
         2086.688     8.395641E-8
          2088.55     1.042428E-7
         2090.414     1.188921E-7
         2092.279     1.132310E-7
         2094.145     1.075200E-7
         2096.014     1.017528E-7
         2097.885     9.593460E-8
         2099.756     9.006803E-8
          2101.63     7.709499E-8
         2103.503     6.296732E-8
         2105.381     4.870542E-8
          2107.26     3.432159E-8
         2109.139     1.982655E-8
         2111.022     2.051524E-8
         2112.906     3.416378E-8
         2114.789     4.790406E-8
         2116.677     6.177219E-8
         2118.564     7.574181E-8
         2120.455     8.358035E-8
         2122.348     7.168572E-8
         2124.241     5.970674E-8
         2126.135     4.763227E-8
         2128.033     3.545717E-8
         2129.932     2.318565E-8
         2131.832     2.162860E-8
         2133.734     2.045973E-8
         2135.637     1.928200E-8
         2137.544     1.809367E-8
          2139.45     1.690158E-8
         2141.359     1.501062E-8
          2143.27     1.282305E-8
         2145.182     1.061966E-8
         2147.096     8.398131E-9
         2149.011     6.160924E-9
         2150.929     6.382716E-9
         2152.848     9.251140E-9
         2154.768     1.214022E-8
         2156.692     1.505375E-8
         2158.615     1.798256E-8
         2160.541     2.122725E-8
         2162.469     2.524107E-8
         2164.397     2.927687E-8
          2166.33     3.334759E-8
         2168.263     3.744361E-8
         2170.196     4.048379E-8
         2172.133     3.395482E-8
          2174.07     2.738888E-8
         2176.011     2.077589E-8
         2177.953     1.412061E-8
         2179.895     7.427927E-9
          2181.84     1.790723E-8
         2183.787     2.943866E-8
         2185.735     4.103189E-8
         2187.686     5.269879E-8
         2189.637     6.442649E-8
          2191.59     6.286570E-8
         2193.546     5.823184E-8
         2195.503     5.357326E-8
         2197.462     4.889164E-8
         2199.423     4.418104E-8
         2201.385     4.977559E-8
         2203.348     5.980565E-8
         2205.315     7.000237E-8
         2207.283     8.035916E-8
         2209.252     9.087030E-8
         2211.222     8.544166E-8
         2213.196     6.996675E-8
          2215.17     5.425162E-8
         2217.147     3.827168E-8
         2219.125     2.203720E-8
         2221.104     1.392219E-8
         2223.086     1.235301E-8
         2225.071     1.075788E-8
         2227.055     9.140629E-9
         2229.042     7.496176E-9
         2231.031     6.577976E-9
         2233.021     6.348805E-9
         2235.015     6.115481E-9
         2237.008     5.878555E-9
         2239.003     5.637694E-9
         2241.002     6.910710E-9
         2242.999     9.719064E-9
         2245.002     1.257129E-8
         2247.005     1.545927E-8
         2249.009     1.838664E-8
         2251.016     2.044276E-8
         2253.024     2.162913E-8
         2255.033     2.282997E-8
         2257.046     2.404622E-8
         2259.061     2.527709E-8
         2261.075     2.374206E-8
         2263.092     1.974053E-8
         2265.112     1.568293E-8
         2267.134     1.157140E-8
         2269.156     7.408743E-9
         2271.181     5.959250E-9
         2273.207     6.483851E-9
         2275.234     7.014674E-9
         2277.266     7.552397E-9
         2279.296     8.095294E-9
          2281.33     1.012343E-8
         2283.366     1.296270E-8
         2285.402     1.583246E-8
         2287.441     1.873973E-8
         2289.483     2.168087E-8
         2291.525     2.687138E-8
          2293.57     3.288237E-8
         2295.615     3.895477E-8
         2297.663     4.511648E-8
         2299.715     5.135863E-8
         2301.765     5.076336E-8
          2303.82     4.903585E-8
         2305.876     4.728479E-8
         2307.932     4.551113E-8
         2309.992     4.371243E-8
         2312.051     3.692032E-8
         2314.116     3.001401E-8
          2316.18     2.303227E-8
         2318.246     1.596829E-8
         2320.315     1.022473E-8
         2322.385     1.231342E-8
         2324.457     1.442701E-8
         2326.531     1.656287E-8
         2328.606     1.872260E-8
         2330.685     1.929114E-8
         2332.764     1.655766E-8
         2334.845     1.379218E-8
         2336.927     1.099523E-8
         2339.012     8.166318E-9
         2341.101     1.256891E-8
         2343.188     2.356843E-8
         2345.279     3.468936E-8
         2347.372     4.593753E-8
         2349.467     5.730568E-8
         2351.562     5.496082E-8
         2353.661     4.783719E-8
         2355.759     4.064532E-8
         2357.862     3.336567E-8
         2359.966     2.600790E-8
         2362.071     2.245232E-8
         2364.179     1.892105E-8
         2366.288     1.535476E-8
         2368.398     1.175085E-8
         2370.512     9.745937E-9
         2372.628     1.287603E-8
         2374.744     1.603518E-8
         2376.863     1.922751E-8
         2378.983     2.244948E-8
         2381.105     2.222786E-8
          2383.23     1.878765E-8
         2385.357     1.531330E-8
         2387.485     1.180631E-8
         2389.615     8.264951E-9
         2391.747     7.818129E-9
         2393.881     8.061131E-9
         2396.017     8.306333E-9
         2398.154     8.553428E-9
         2400.293     9.049013E-9
         2402.435     1.110889E-8
          2404.58     1.318777E-8
         2406.724     1.528405E-8
         2408.872     1.740042E-8
         2411.022     2.010294E-8
         2413.171     2.345397E-8
         2415.326     2.684065E-8
         2417.479     3.025045E-8
         2419.637     3.369465E-8
         2421.796     3.021915E-8
         2423.957     2.530398E-8
          2426.12     2.034227E-8
         2428.284     1.534002E-8
         2430.451     1.212880E-8
         2432.619     1.591805E-8
         2434.789     1.973884E-8
         2436.962     2.359436E-8
         2439.136     2.748168E-8
         2441.312     3.532221E-8
          2443.49     4.581965E-8
          2445.67     5.640973E-8
         2447.853     6.708809E-8
         2450.036     7.742007E-8
         2452.222     6.261823E-8
         2454.409     4.769351E-8
           2456.6     3.263536E-8
         2458.792     1.745497E-8
         2460.985     1.918409E-8
          2463.18     4.189731E-8
         2465.379     6.480785E-8
         2467.579     8.789868E-8
         2469.778     1.111445E-7
         2471.983     1.027462E-7
          2474.19     9.069445E-8
         2476.396     7.856669E-8
         2478.606     6.632631E-8
         2480.817     5.457843E-8
         2483.029     4.373565E-8
         2485.247     3.279241E-8
         2487.462     2.178339E-8
         2489.682     1.067441E-8
         2491.904     9.508402E-9
         2494.125     1.001412E-8
         2496.353     1.052451E-8
         2498.579     1.103804E-8
         2500.808     1.200145E-8
          2503.04     1.376062E-8
         2505.272     1.553196E-8
         2507.509     1.731802E-8
         2509.745     1.911613E-8
         2511.985     2.360808E-8
         2514.225     2.847688E-8
         2516.468     3.338319E-8
         2518.714     3.832930E-8
         2520.962     3.859776E-8
          2523.21     3.253967E-8
         2525.462     2.643039E-8
         2527.715     2.027773E-8
         2529.971     1.407350E-8
         2532.229     1.458356E-8
         2534.486     1.518580E-8
         2536.748     1.579310E-8
          2539.01     1.637769E-8
         2541.277     1.729305E-8
         2543.545     1.846934E-8
         2545.813     1.964946E-8
         2548.084     2.083400E-8
         2550.358     2.218477E-8
         2552.635     2.440521E-8
         2554.911     2.663250E-8
         2557.191     2.886995E-8
         2559.471     3.111322E-8
         2561.755     4.029168E-8
         2564.042     5.159942E-8
         2566.329     6.294508E-8
         2568.619     7.434059E-8
         2570.908     7.942168E-8
         2573.205     7.484346E-8
           2575.5     7.025251E-8
         2577.797     6.564160E-8
         2580.097     6.073282E-8
         2582.399     4.954101E-8
         2584.704     3.829557E-8
          2587.01     2.700619E-8
         2589.318     1.567664E-8
         2591.629     1.278802E-8
          2593.94     1.345272E-8
         2596.254     1.411983E-8
         2598.573     1.479033E-8
         2600.889     1.502393E-8
          2603.21     1.455233E-8
         2605.532     1.407893E-8
         2607.856     1.360340E-8
         2610.185     1.379229E-8
         2612.512     2.172661E-8
         2614.843     2.970211E-8
         2617.177     3.771035E-8
          2619.51     4.574112E-8
         2621.849     4.304620E-8
         2624.188     3.748403E-8
         2626.528     3.189871E-8
         2628.873     2.628623E-8
         2631.217     2.309673E-8
         2633.566     2.216102E-8
         2635.916     2.122115E-8
         2638.267     2.027765E-8
          2640.62     1.902674E-8
         2642.977     1.692010E-8
         2645.334     1.480567E-8
         2647.695     1.268110E-8
         2650.057     1.064003E-8
         2652.422     1.229557E-8
         2654.788     1.395673E-8
         2657.157     1.562569E-8
         2659.526     1.729935E-8
         2661.899     3.506993E-8
         2664.275     5.694118E-8
         2666.652     7.888985E-8
         2669.031     1.009404E-7
         2671.412     9.601063E-8
         2673.796     7.243953E-8
         2676.181     4.878606E-8
          2678.57     2.501916E-8
          2680.96     2.117075E-8
          2683.35     4.716997E-8
         2685.746     7.332222E-8
          2688.14     9.953378E-8
          2690.54     1.183618E-7
         2692.941     1.112740E-7
         2695.343     1.041589E-7
         2697.748     9.700945E-8
         2700.153     8.943582E-8
         2702.563     7.585732E-8
         2704.975     6.218090E-8
         2707.387     4.841330E-8
         2709.804     3.453615E-8
         2712.222     3.178515E-8
         2714.642     3.000904E-8
         2717.063     2.821982E-8
         2719.486     2.641709E-8
         2721.915     2.673423E-8
         2724.343     2.762721E-8
         2726.772     2.852605E-8
         2729.205     2.943077E-8
          2731.64     3.101315E-8
         2734.078     3.293299E-8
         2736.517     3.486473E-8
         2738.958     3.680937E-8
         2741.402     3.461918E-8
         2743.849     2.931666E-8
         2746.296     2.397969E-8
         2748.747     1.860128E-8
         2751.198     1.864247E-8
         2753.653     2.439496E-8
         2756.111     3.016120E-8
         2758.569     3.593776E-8
         2761.031     3.672590E-8
         2763.495     3.055599E-8
         2765.958     2.437880E-8
         2768.427     1.817961E-8
         2770.898     1.462123E-8
         2773.369     1.571413E-8
         2775.844     1.681022E-8
          2778.32     1.790824E-8
         2780.799     1.933884E-8
          2783.28     2.146883E-8
         2785.764     2.360394E-8
         2788.249     2.574250E-8
         2790.736     2.772923E-8
         2793.227     2.934748E-8
          2795.72     3.096937E-8
         2798.213     3.259397E-8
         2800.709     3.791108E-8
         2803.209     5.255575E-8
         2805.709     6.722446E-8
         2808.213     8.193595E-8
         2810.718     8.698582E-8
         2813.226     6.788839E-8
         2815.736     4.876036E-8
         2818.247     2.959054E-8
         2820.764     2.033717E-8
         2823.278     3.397967E-8
         2825.798     4.766854E-8
          2828.32     6.138661E-8
         2830.843     7.285976E-8
         2833.369     7.983713E-8
         2835.898     8.682984E-8
         2838.426     9.382843E-8
         2840.959     8.993447E-8
         2843.495     6.809275E-8
         2846.031     4.621887E-8
         2848.571     2.428325E-8
         2851.112     1.510276E-8
         2853.655     2.236177E-8
         2856.202     2.963965E-8
         2858.751     3.693228E-8
         2861.301     3.680699E-8
         2863.853     2.953570E-8
         2866.407     2.224923E-8
         2868.965     1.494337E-8
         2871.526     1.417618E-8
         2874.087     1.785477E-8
         2876.652     2.154331E-8
         2879.218     2.523653E-8
         2881.788     2.404509E-8
         2884.358     2.070880E-8
         2886.931     1.736575E-8
         2889.507     1.401436E-8
         2892.084     1.580182E-8
         2894.666     1.881235E-8
         2897.248     2.182711E-8
         2899.832     2.484724E-8
         2902.421     2.187387E-8
          2905.01     1.849294E-8
         2907.601     1.511751E-8
         2910.198     1.204389E-8
          2912.79     1.261639E-8
         2915.392     1.318923E-8
         2917.992     1.376025E-8
         2920.594     1.435592E-8
         2923.203     1.503829E-8
         2925.807     1.571771E-8
          2928.42     1.639740E-8
         2931.033     1.801224E-8
         2933.646     2.105269E-8
         2936.266     2.409272E-8
         2938.885     2.712294E-8
         2941.506     3.050993E-8
         2944.131     3.416075E-8
         2946.757     3.780204E-8
         2949.387     4.143815E-8
         2952.018     3.632407E-8
         2954.653     2.856357E-8
          2957.29     2.081841E-8
         2959.926     1.309797E-8
         2962.567     2.815577E-8
          2965.21     4.383213E-8
         2967.856     5.948351E-8
         2970.505     6.988250E-8
         2973.155     5.812111E-8
         2975.808     4.637640E-8
         2978.461     3.467120E-8
         2981.121     2.719674E-8
          2983.78     2.554392E-8
         2986.441     2.389452E-8
         2989.104     2.224869E-8
         2991.772     2.557614E-8
         2994.442     3.140494E-8
         2997.113     3.721747E-8
         2999.788     4.302053E-8
         3002.464     3.680359E-8
         3005.142     2.957005E-8
         3007.826     2.234356E-8
         3010.507     1.677312E-8
         3013.194     1.818725E-8
         3015.883     1.959798E-8
         3018.573     2.100440E-8
         3021.267     2.157345E-8
          3023.96     2.120165E-8
          3026.66     2.082990E-8
          3029.36     2.045933E-8
         3032.062     3.489940E-8
          3034.77     5.392044E-8
         3037.475     7.286040E-8
         3040.186     8.901507E-8
         3042.897     6.770942E-8
         3045.612     4.645425E-8
         3048.332     2.522511E-8
         3051.051     1.279792E-8
         3053.772     1.424314E-8
         3056.497     1.568561E-8
         3059.222     1.712232E-8
         3061.954     3.547048E-8
         3064.685     6.046862E-8
         3067.418     8.540347E-8
         3070.156     1.079070E-7
         3072.896     9.102279E-8
         3075.637     7.419144E-8
          3078.38     5.740570E-8
         3081.126     4.745539E-8
         3083.877     4.729455E-8
         3086.628     4.713394E-8
         3089.381     4.697339E-8
         3092.137     6.104521E-8
         3094.895     7.919625E-8
         3097.659     9.731873E-8
         3100.422     1.083461E-7
         3103.187     8.028183E-8
         3105.955     5.210833E-8
         3108.729     2.379034E-8
         3111.501     1.788303E-8
         3114.277     3.104381E-8
         3117.056     4.426369E-8
         3119.836     5.752537E-8
         3122.621     5.960477E-8
         3125.406     6.098683E-8
         3128.195     6.237477E-8
         3130.985     5.821745E-8
         3133.778     4.385449E-8
         3136.575     2.942708E-8
         3139.373     1.495272E-8
         3142.175     1.155196E-8
         3144.979     1.135986E-8
         3147.784     1.116708E-8
         3150.592     1.115612E-8
         3153.405     1.183164E-8
         3156.218     1.250886E-8
         3159.035     1.318911E-8
         3161.851     1.338591E-8
         3164.674     1.332962E-8
         3167.497     1.327313E-8
         3170.322     1.484366E-8
         3173.152     2.909709E-8
         3175.982     4.339779E-8
         3178.816     5.776192E-8
         3181.652     5.542323E-8
          3184.49     4.104611E-8
         3187.333     2.659348E-8
         3190.175     1.332546E-8
         3193.022     1.858744E-8
          3195.87     2.386687E-8
         3198.722     2.916969E-8
         3201.577     7.176194E-8
         3204.433     1.447519E-7
         3207.291     2.180217E-7
         3210.151     2.835248E-7
         3213.018     2.047938E-7
         3215.884     1.258588E-7
         3218.752     4.661182E-8
         3221.623     1.334480E-8
         3224.499     1.560717E-8
         3227.376     1.787835E-8
         3230.255     1.992339E-8
         3233.136     1.956951E-8
          3236.02     1.921418E-8
         3238.908     1.885718E-8
         3241.799     3.648692E-8
          3244.69     6.511139E-8
         3247.584     9.385113E-8
         3250.485     1.135125E-7
         3253.384     8.720076E-8
         3256.286     6.078523E-8
         3259.192     3.424998E-8
         3262.097     4.632068E-8
          3265.01     7.343147E-8
         3267.922     1.006122E-7
         3270.837     1.117272E-7
         3273.758     8.261498E-8
         3276.675     5.346307E-8
         3279.601     2.412224E-8
         3282.526     1.803367E-8
         3285.454     1.561653E-8
         3288.388     1.318697E-8
         3291.319     1.185706E-8
         3294.257     1.187508E-8
         3297.195     1.189311E-8
         3300.137     1.196965E-8
         3303.083     1.324239E-8
         3306.029     1.451938E-8
         3308.979     1.580202E-8
         3311.931     4.908360E-8
         3314.885     9.944768E-8
         3317.844     1.500402E-7
         3320.803     1.768598E-7
         3323.767     1.393064E-7
         3326.731     1.016253E-7
           3329.7     6.376951E-8
          3332.67     5.536258E-8
         3335.643     5.024717E-8
         3338.622     4.510529E-8
         3341.599     4.105028E-8
          3344.58     3.793006E-8
         3347.563     3.479751E-8
         3350.551     3.278597E-8
         3353.541     3.580199E-8
         3356.532     3.882820E-8
         3359.528     4.186809E-8
         3362.524     5.352992E-8
         3365.525     6.686044E-8
         3368.527     8.023641E-8
         3371.532     8.002169E-8
         3374.541     6.664827E-8
         3377.551     5.322849E-8
         3380.565     4.669333E-8
         3383.582     7.030790E-8
         3386.598     9.398850E-8
         3389.623     1.178083E-7
         3392.646     1.479151E-7
         3395.672     1.790349E-7
         3398.705     2.103177E-7
         3401.732     1.895319E-7
          3404.77     1.294485E-7
         3407.807     6.919364E-8
         3410.847     2.508615E-8
         3413.893     2.335654E-8
         3416.938     2.162192E-8
         3419.985     1.988003E-8
         3423.038     8.622920E-8
         3426.089     1.530979E-7
         3429.148     2.203625E-7
         3432.207     1.977099E-7
         3435.268     1.401083E-7
         3438.334     8.223269E-8
         3441.401     4.773456E-8
         3444.473     4.119778E-8
         3447.545     3.463864E-8
         3450.622     4.052085E-8
         3453.701     9.582570E-8
         3456.782     1.513195E-7
         3459.865     2.070469E-7
         3462.951     1.767409E-7
         3466.042     1.423330E-7
         3469.135     1.077819E-7
         3472.229     9.354174E-8
         3475.326     8.719065E-8
         3478.426     8.081270E-8
         3481.532     6.796962E-8
         3484.638     4.847333E-8
         3487.746     2.889648E-8
         3490.859     1.614539E-8
         3493.972     2.155565E-8
         3497.091     2.699158E-8
          3500.21     3.238100E-8
         3503.334     3.686892E-8
          3506.46     4.137605E-8
         3509.586     4.589679E-8
          3512.72     7.071889E-8
         3515.852     9.869071E-8
         3518.989     1.268142E-7
          3522.13     1.281194E-7
         3525.271     1.166188E-7
         3528.418     1.050613E-7
         3531.563     1.063395E-7
         3534.717     1.207142E-7
          3537.87     1.351336E-7
         3541.025     1.319768E-7
         3544.188     9.200507E-8
         3547.349     5.191038E-8
         3550.513     1.871684E-8
         3553.679     2.207327E-8
         3556.849     2.544441E-8
         3560.026     2.881421E-8
         3563.201     2.970026E-8
         3566.379     3.059003E-8
         3569.562     3.148423E-8
         3572.746     2.805360E-8
         3575.935     2.391285E-8
         3579.124     1.975647E-8
         3582.316     1.811654E-8
         3585.513     1.743007E-8
         3588.714     1.674040E-8
         3591.915     1.928996E-8
         3595.118     2.403455E-8
         3598.325     2.880062E-8
         3601.538     2.870625E-8
         3604.751     2.328208E-8
         3607.966     1.783383E-8
         3611.184     2.248997E-8
         3614.409     4.464687E-8
         3617.633     6.687425E-8
         3620.859     8.390742E-8
         3624.089     8.640101E-8
         3627.322     8.890525E-8
         3630.561     9.278375E-8
         3633.799     1.031815E-7
          3637.04     1.136256E-7
         3640.286     1.252655E-7
         3643.533     1.488080E-7
         3646.785     1.724685E-7
         3650.038     1.952670E-7
         3653.295     1.363598E-7
         3656.556     7.718019E-8
         3659.815     1.781179E-8
         3663.082     1.813418E-8
         3666.353     2.207073E-8
         3669.621     2.601796E-8
         3672.896     2.361819E-8
         3676.172     2.037349E-8
         3679.451     1.711420E-8
         3682.737     1.878192E-8
         3686.022     2.144895E-8
         3689.309     2.412779E-8
           3692.6     2.260202E-8
         3695.896     1.994462E-8
         3699.194     1.727484E-8
         3702.494     1.890343E-8
         3705.798     2.193752E-8
         3709.101     2.498148E-8
         3712.412     5.980240E-8
         3715.725     1.066522E-7
         3719.039     1.536835E-7
         3722.358     1.463186E-7
         3725.678     1.166201E-7
         3729.004     8.676614E-8
          3732.33     6.718807E-8
         3735.659     5.197621E-8
         3738.995     3.667580E-8
          3742.33     3.833579E-8
         3745.668     4.736197E-8
         3749.009     5.642898E-8
         3752.354     6.393189E-8
         3755.703     7.078839E-8
         3759.053     7.767171E-8
         3762.408     6.438962E-8
         3765.764     4.309602E-8
         3769.125     2.169326E-8
         3772.487     1.693713E-8
         3775.852     1.806225E-8
         3779.222     1.919324E-8
         3782.594     1.843543E-8
         3785.968     1.710524E-8
         3789.345     1.576884E-8
         3792.725     2.578270E-8
         3796.112     3.859332E-8
         3799.498     5.144670E-8
         3802.887     5.167829E-8
         3806.279     4.970010E-8
         3809.676     4.771131E-8
         3813.076     3.778822E-8
         3816.477     2.698869E-8
         3819.881     1.614039E-8
          3823.29     1.578827E-8
           3826.7     1.581680E-8
         3830.116     1.584541E-8
         3833.532     1.587405E-8
         3836.951     1.590275E-8
         3840.378     1.629062E-8
         3843.803     1.958278E-8
         3847.232     2.288959E-8
         3850.663     2.606758E-8
         3854.102     2.866232E-8
          3857.54     3.126551E-8
          3860.98     3.180769E-8
         3864.426     2.713338E-8
         3867.875     2.243791E-8
         3871.325     3.065722E-8
         3874.778     5.971178E-8
         3878.234     8.889454E-8
         3881.695     9.307281E-8
         3885.157     7.101446E-8
         3888.625     4.884317E-8
         3892.094     3.510905E-8
         3895.565     2.692653E-8
         3899.044     1.869698E-8
         3902.521     1.920882E-8
         3906.002     2.305617E-8
         3909.489     2.692265E-8
         3912.975     2.789461E-8
         3916.468     2.836969E-8
         3919.961     2.884642E-8
         3923.457     3.553218E-8
         3926.961     4.232593E-8
         3930.462     4.826807E-8
         3933.969     4.850553E-8
         3937.478     4.874367E-8
         3940.992     4.574613E-8
          3944.51     3.448976E-8
         3948.028     2.319164E-8
          3951.55     1.685502E-8
         3955.074     1.688374E-8
         3958.606     1.691255E-8
         3962.137     2.268750E-8
         3965.671     3.224445E-8
          3969.21     4.184799E-8
          3972.75     6.361613E-8
         3976.296     8.898440E-8
         3979.843     1.144445E-7
         3983.395     8.731719E-8
          3986.95     5.762748E-8
         3990.504     3.133306E-8
         3994.065     2.606380E-8
          3997.63     2.077207E-8
         4001.196     1.853738E-8
         4004.767     2.239975E-8
         4008.339     2.626207E-8
         4011.914     2.598495E-8
         4015.494     2.210725E-8
         4019.078     1.822734E-8
         4022.663     2.185517E-8
         4026.251     2.808628E-8
         4029.844     3.432405E-8
         4033.441     2.861104E-8
         4037.039     2.235747E-8
         4040.639     1.801952E-8
         4044.243     2.257371E-8
         4047.855     2.713583E-8
         4051.465     4.009516E-8
         4055.079     6.536747E-8
         4058.698     9.066568E-8
         4062.316     8.221861E-8
         4065.944     5.475192E-8
          4069.57     2.730795E-8
           4073.2     3.580556E-8
         4076.838     4.915261E-8
         4080.472     5.869165E-8
         4084.114     4.280867E-8
         4087.756     2.692923E-8
         4091.405     1.859670E-8
         4095.056     2.234775E-8
         4098.708     2.609740E-8
         4102.367     2.626671E-8
         4106.026     2.448020E-8
         4109.688     2.269336E-8
         4113.356     2.488584E-8
         4117.025     2.744761E-8
         4120.699     2.865385E-8
         4124.375     2.408352E-8
         4128.056     1.950907E-8
         4131.738     1.709135E-8
         4135.423     1.708532E-8
         4139.116     1.707927E-8
         4142.808     1.707319E-8
         4146.503     1.706707E-8
         4150.201     1.706092E-8
         4153.903     1.705434E-8
         4157.613     1.704774E-8
         4161.321     1.958825E-8
         4165.033     2.673258E-8
         4168.748     3.387788E-8
         4172.466     4.141395E-8
         4176.192     4.915805E-8
         4179.917     5.689373E-8
         4183.645     6.076645E-8
         4187.379     6.455392E-8
         4191.116     6.492300E-8
         4194.854     5.726544E-8
         4198.596     4.960739E-8
         4202.343     4.361600E-8
         4206.094     3.861490E-8
         4209.845     3.360325E-8
         4213.603     3.204264E-8
         4217.358     3.062883E-8
         4221.123     3.427616E-8
          4224.89     4.987637E-8
         4228.658     6.551083E-8
         4232.432     5.798657E-8
         4236.208     3.762471E-8
         4239.988     1.719696E-8
          4243.77     1.714879E-8
         4247.555     1.716407E-8
         4251.348     1.717937E-8
          4255.14     1.719464E-8
         4258.936     1.720995E-8
         4262.734     1.722509E-8
         4266.537     1.724018E-8
         4270.347     1.725531E-8
         4274.155     1.727042E-8
         4277.968     1.728555E-8
         4281.786     1.730059E-8
         4285.605     1.731552E-8
          4289.43     1.733047E-8
         4293.256     1.734540E-8
         4297.085     1.736034E-8
         4300.922     1.737527E-8
         4304.759     1.739002E-8
         4308.598     1.740480E-8
         4312.441     1.741957E-8
          4316.29     1.743436E-8
         4320.142     1.744916E-8
         4323.996     1.746395E-8
         4327.854     1.747876E-8
         4331.715     1.749357E-8
         4335.581     1.750839E-8
         4339.448     1.752322E-8
         4343.318     1.753785E-8
         4347.195     1.755249E-8
         4351.072     1.756707E-8
         4354.956     1.758152E-8
          4358.84     1.759597E-8
         4362.728     1.761056E-8
         4366.624     1.762524E-8
         4370.519     1.763989E-8
         4374.417     1.765435E-8
         4378.318     1.766883E-8
         4382.229     4.877574E-8
         4386.137     1.033947E-7
         4390.049     1.607628E-7
         4393.967     4.233491E-7
         4397.889     6.866215E-7
         4401.812     1.004889E-6
         4405.738     1.387656E-6
         4409.667     1.771383E-6
         4413.603     1.929537E-6
         4417.542     2.067119E-6
         4421.482     2.246093E-6
         4425.426     2.493806E-6
         4429.373     2.742098E-6
         4433.329     2.685235E-6
         4437.283     2.570606E-6
         4441.241     2.402900E-6
         4445.205     2.118745E-6
         4449.169     1.834059E-6
          4453.14     1.554710E-6
         4457.112     1.276461E-6
         4461.088     9.953782E-7
         4465.069     7.077088E-7
         4469.052     4.195121E-7
         4473.041     2.703700E-7
          4477.03     1.646530E-7
         4481.028     8.038327E-8
         4485.022     5.911019E-8
         4489.025     3.775645E-8
         4493.032     3.125220E-8
         4497.039     2.953137E-8
         4501.053     2.721841E-8
         4505.067     2.323278E-8
         4509.086     1.921044E-8
         4513.107     1.881778E-8
         4517.136     1.950506E-8
         4521.167     1.984150E-8
           4525.2     1.930205E-8
         4529.238     1.875696E-8
         4533.281     1.871303E-8
         4537.324     1.878629E-8
         4541.371     1.885962E-8
         4545.422     1.893303E-8
         4549.479     1.900657E-8
         4553.539     1.908037E-8
           4557.6     1.915424E-8
         4561.668     1.922816E-8
         4565.734     1.930191E-8
         4569.809     1.937585E-8
         4573.887     3.003510E-8
         4577.967     4.130221E-8
         4582.053     4.858493E-8
         4586.142     5.186524E-8
         4590.233     5.503577E-8
         4594.327     5.599497E-8
         4598.425     5.696068E-8
         4602.529     4.798368E-8
         4606.637     3.270256E-8
         4610.746     2.136554E-8
          4614.86     2.834839E-8
         4618.979     3.538996E-8
         4623.097     3.458340E-8
         4627.223     3.115099E-8
          4631.35     2.773731E-8
         4635.483     2.438644E-8
         4639.621     2.100754E-8
         4643.759     2.446680E-8
           4647.9     2.864952E-8
         4652.046     2.962616E-8
         4656.198     2.726924E-8
         4660.354     2.537577E-8
         4664.511     2.868432E-8
         4668.673     3.202024E-8
          4672.84     3.629927E-8
         4677.005     4.103543E-8
          4681.18     4.260552E-8
         4685.355     3.600774E-8
         4689.537     2.935201E-8
         4693.722     3.542277E-8
         4697.909     4.313400E-8
         4702.102     4.365940E-8
         4706.293     3.694892E-8
         4710.493     3.054015E-8
         4714.697     2.682759E-8
         4718.902     2.308764E-8
         4723.114     2.216388E-8
          4727.33     2.224086E-8
         4731.543     2.231772E-8
         4735.766     2.239458E-8
          4739.99     2.247149E-8
         4744.221     3.023598E-8
         4748.455     3.807741E-8
          4752.69     3.610857E-8
         4756.932     2.842658E-8
         4761.172     2.285802E-8
         4765.421     2.293573E-8
         4769.674     2.301353E-8
         4773.929     2.309138E-8
         4778.189     2.316936E-8
         4782.454     2.324724E-8
         4786.719     2.332503E-8
         4790.989     2.448021E-8
         4795.262     2.923344E-8
         4799.542     3.402497E-8
         4803.826     3.043243E-8
          4808.11     2.580290E-8
         4812.401     2.379505E-8
         4816.696     2.387347E-8
         4820.993     2.395199E-8
         4825.292     2.403082E-8
         4829.597     2.410977E-8
         4833.907     2.418880E-8
         4838.221     2.426795E-8
         4842.537     2.434713E-8
         4846.855     2.442639E-8
         4851.179     2.528122E-8
         4855.508     2.822085E-8
         4859.842     3.118157E-8
         4864.177     3.400533E-8
         4868.518     3.684487E-8
         4872.863     3.417799E-8
         4877.209     2.862159E-8
          4881.56     2.506297E-8
         4885.914     2.514299E-8
         4890.277     2.522320E-8
         4894.639     2.530339E-8
         4899.004     2.538366E-8
         4903.376     2.575256E-8
         4907.748     2.620852E-8
          4912.13     2.630192E-8
         4916.512     2.600710E-8
         4920.897     2.597520E-8
         4925.289     2.697996E-8
         4929.685     2.799152E-8
         4934.082     2.728207E-8
         4938.482     2.643303E-8
         4942.887     2.619233E-8
         4947.301     2.627401E-8
         4951.714     2.653567E-8
         4956.131     2.708330E-8
         4960.554     2.814116E-8
         4964.976     3.275485E-8
          4969.41     3.740918E-8
         4973.842     3.376452E-8
         4978.278     2.880995E-8
         4982.724     3.188931E-8
         4987.168     4.010396E-8
         4991.617     4.479723E-8
         4996.069     4.323089E-8
         5000.528     4.108697E-8
         5004.991     3.469940E-8
         5009.455     2.826204E-8
         5013.923     2.756080E-8
         5018.398     2.766092E-8
         5022.874     2.776134E-8
         5027.357     2.786206E-8
         5031.841     2.796268E-8
         5036.329     2.806320E-8
         5040.827     2.816402E-8
         5045.323     2.826513E-8
         5049.823     2.836636E-8
         5054.327     2.846731E-8
         5058.838     2.856842E-8
         5063.353     2.866995E-8
         5067.869     2.877163E-8
          5072.39     2.887342E-8
         5076.919     2.897545E-8
         5081.448     2.907733E-8
          5085.98     2.917904E-8
         5090.516     2.928092E-8
          5095.06     2.938333E-8
         5099.607     2.948587E-8
         5104.155     3.153648E-8
         5108.708     3.378772E-8
         5113.265     3.951946E-8
         5117.828     4.667625E-8
         5122.396     4.535237E-8
         5126.965     3.625218E-8
         5131.538     3.076155E-8
          5136.12     3.252693E-8
         5140.701     3.379331E-8
         5145.287     3.223565E-8
         5149.876     3.066531E-8
         5154.472     3.072383E-8
         5159.072     3.082787E-8
         5163.674     3.093194E-8
         5168.283     3.103620E-8
         5172.895     3.114057E-8
         5177.506     3.124495E-8
         5182.127     3.138942E-8
         5186.749     3.158112E-8
         5191.378     3.212468E-8
         5196.012     3.350275E-8
         5200.646     3.452152E-8
         5205.285     3.326530E-8
         5209.928     3.199889E-8
         5214.577     3.208288E-8
         5219.231     3.218841E-8
         5223.887     3.556055E-8
         5228.549     3.960798E-8
         5233.215     3.824436E-8
          5237.88     3.440930E-8
         5242.555     3.280007E-8
         5247.231     3.306138E-8
         5251.914     3.319672E-8
         5256.601     3.314737E-8
          5261.29     3.314003E-8
         5265.985     3.324578E-8
          5270.68     3.547293E-8
         5275.383     5.031320E-8
         5280.092     6.472015E-8
         5284.801     5.183664E-8
         5289.518     3.885003E-8
         5294.239     3.603929E-8
         5298.958     3.438198E-8
         5303.687     3.409773E-8
         5308.418     3.420447E-8
         5313.155     4.222768E-8
         5317.897     5.429455E-8
         5322.641     5.310494E-8
         5327.391     4.123945E-8
          5332.14     3.473991E-8
         5336.899     3.484737E-8
         5341.662     3.553173E-8
         5346.426     3.730011E-8
         5351.198     3.827113E-8
         5355.974     3.682148E-8
         5360.751     4.008909E-8
         5365.532     6.882155E-8
         5370.318     9.564830E-8
         5375.111     9.294898E-8
         5379.908     9.022947E-8
         5384.707     7.385572E-8
         5389.513     5.709126E-8
         5394.323     4.890421E-8
         5399.131     4.165258E-8
          5403.95     3.882425E-8
          5408.77     3.696632E-8
         5413.597     4.953481E-8
         5418.429     6.714546E-8
         5423.262     6.121496E-8
         5428.099     4.380648E-8
          5432.94     3.700319E-8
         5437.792     3.711144E-8
         5442.643     3.721965E-8
         5447.497     3.732796E-8
         5452.359     4.761863E-8
         5457.225     6.882233E-8
         5462.092     7.198405E-8
         5466.964     5.097774E-8
          5471.84     4.170126E-8
         5476.724     5.202021E-8
         5481.612     5.565346E-8
         5486.501     4.554080E-8
         5491.398     4.280632E-8
         5496.293     5.874932E-8
         5501.198     7.194781E-8
         5506.108     7.632704E-8
         5511.019     7.702604E-8
         5515.938     6.352634E-8
          5520.86     5.480802E-8
         5525.785     6.907799E-8
         5530.713     7.836667E-8
         5535.646     5.766586E-8
         5540.587     3.932021E-8
         5545.532     3.942010E-8
         5550.478     3.958991E-8
         5555.432     4.041691E-8
         5560.387     4.113385E-8
         5565.347     4.050660E-8
         5570.313     4.117877E-8
         5575.282     6.126806E-8
         5580.258     8.209734E-8
         5585.238     1.142937E-7
          5590.22     1.429342E-7
         5595.206     9.084181E-8
         5600.197     4.051779E-8
         5605.198     4.057519E-8
         5610.197     4.063256E-8
         5615.201     4.068995E-8
         5620.213     4.076137E-8
         5625.226     4.114811E-8
         5630.246     4.287170E-8
         5635.268     7.055069E-8
         5640.294     9.543090E-8
         5645.328     7.368131E-8
         5650.367     5.417807E-8
         5655.406     6.432561E-8
         5660.451     7.316716E-8
         5665.502     6.831120E-8
         5670.559     6.271859E-8
         5675.617     5.132263E-8
         5680.679     4.142834E-8
         5685.752     4.148467E-8
         5690.823     4.156581E-8
         5695.899     4.177567E-8
         5700.979     4.192671E-8
         5706.064     4.182908E-8
          5711.16     4.315592E-8
         5716.254     4.932535E-8
         5721.353     5.226582E-8
         5726.456     4.619771E-8
         5731.567     4.233025E-8
         5736.682     4.349575E-8
         5741.799     4.388341E-8
          5746.92     4.282831E-8
         5752.053     4.631756E-8
         5757.183     5.664647E-8
         5762.318     8.995340E-8
         5767.458     1.513250E-7
         5772.602     1.500315E-7
         5777.757     8.707623E-8
         5782.911     5.547134E-8
         5788.068     4.807345E-8
         5793.237     4.446989E-8
         5798.401     4.314638E-8
         5803.577     7.193594E-8
         5808.753     1.142890E-7
         5813.937     1.425790E-7
         5819.126     1.664485E-7
         5824.316     1.155562E-7
         5829.511     4.930230E-8
         5834.711     9.711270E-8
         5839.918     1.570098E-7
          5845.13     1.036131E-7
         5850.344     5.199785E-8
         5855.562     5.333731E-8
         5860.792     5.402156E-8
         5866.016     5.099772E-8
         5871.251     4.805053E-8
         5876.488     4.538559E-8
         5881.732     4.745993E-8
         5886.982     5.919317E-8
         5892.232     7.305457E-8
         5897.491     8.981503E-8
         5902.749     8.303412E-8
         5908.017     5.462760E-8
          5913.29     4.394916E-8
         5918.563     4.400575E-8
         5923.846     5.884706E-8
         5929.133     7.927435E-8
         5934.421     6.567635E-8
         5939.714     4.533299E-8
         5945.012     4.428705E-8
         5950.318     4.436542E-8
         5955.629     4.478728E-8
         5960.941     4.508061E-8
         5966.258     4.477172E-8
         5971.579     5.482713E-8
         5976.909     8.955735E-8
         5982.243     9.947643E-8
         5987.579     7.501508E-8
         5992.923     7.706841E-8
         5998.271     1.012256E-7
         6003.622     8.581508E-8
         6008.976     5.145883E-8
         6014.336     7.546631E-8
         6019.704     1.133344E-7
         6025.076     1.280207E-7
          6030.45     1.395393E-7
         6035.832     1.311385E-7
         6041.219     1.272347E-7
         6046.604     1.387404E-7
         6052.001     1.370327E-7
         6057.399     1.128431E-7
         6062.805     1.083466E-7
         6068.216     1.221665E-7
         6073.628     1.318317E-7
         6079.046     1.394592E-7
         6084.468     1.020027E-7
         6089.898     5.482367E-8
         6095.333     1.403067E-7
          6100.77     2.196660E-7
         6106.215     2.463108E-7
         6111.665     2.367528E-7
         6117.112     1.448063E-7
         6122.572     1.081952E-7
         6128.033     1.339831E-7
         6133.502     2.003637E-7
         6138.976     2.896291E-7
         6144.452     2.786960E-7
         6149.936     2.446420E-7
         6155.417     2.259656E-7
         6160.911     2.065154E-7
          6166.41     1.824576E-7
          6171.91     1.652001E-7
         6177.418     1.607469E-7
         6182.932     1.858063E-7
         6188.443     2.368545E-7
         6193.966     3.084912E-7
         6199.491     3.882000E-7
         6205.024     2.770655E-7
         6210.562     1.563690E-7
         6216.101     1.237794E-7
         6221.649     1.599014E-7
         6227.195     3.586057E-7
         6232.756     4.708045E-7
         6238.315     4.943409E-7
         6243.879     4.177714E-7
         6249.452     2.974932E-7
         6255.029     4.053529E-7
         6260.608     5.276490E-7
         6266.193     5.641035E-7
         6271.782     5.888626E-7
         6277.379     5.885523E-7
         6282.982     5.479136E-7
         6288.586     4.717977E-7
         6294.198     6.373067E-7
         6299.809     8.842364E-7
         6305.435     1.042551E-6
         6311.059     1.179447E-6
         6316.688     1.237685E-6
         6322.326     1.263349E-6
         6327.968     1.242458E-6
         6333.612     1.239324E-6
         6339.262     1.246191E-6
         6344.916     1.333713E-6
         6350.579     1.444558E-6
         6356.247     1.652701E-6
         6361.916     1.815340E-6
         6367.594     1.888808E-6
         6373.277     1.964701E-6
         6378.961     2.042352E-6
         6384.651     2.066012E-6
         6390.346     2.085498E-6
         6396.049     2.227239E-6
         6401.757     2.357007E-6
         6407.467     2.459558E-6
         6413.183     2.580489E-6
         6418.906     2.716169E-6
         6424.631     2.905710E-6
         6430.365     3.113624E-6
         6436.104     3.400433E-6
         6441.845     3.628481E-6
         6447.594     3.732492E-6
         6453.345     3.934507E-6
         6459.101     4.207214E-6
         6464.866     4.482997E-6
         6470.632     4.762041E-6
         6476.407     5.063657E-6
         6482.184     5.370628E-6
         6487.969     5.686816E-6
         6493.756     6.080583E-6
         6499.548     6.516569E-6
         6505.349     6.860312E-6
         6511.154     7.234270E-6
         6516.962     7.763313E-6
         6522.778     8.317972E-6
         6528.596     8.899927E-6
         6534.419     9.570938E-6
         6540.251     1.026835E-5
         6546.088     1.093875E-5
         6551.927     1.166140E-5
         6557.771     1.249223E-5
         6563.624     1.339876E-5
         6569.478     1.435001E-5
         6575.341     1.538166E-5
         6581.206     1.641476E-5
          6587.08     1.743306E-5
         6592.955     1.872098E-5
         6598.839     2.027593E-5
         6604.729     2.160895E-5
         6610.616     2.292722E-5
         6616.516     2.461775E-5
         6622.421     2.642835E-5
         6628.328     2.841197E-5
         6634.244     3.068435E-5
         6640.165     3.306823E-5
         6646.087     3.553211E-5
         6652.015     3.813890E-5
         6657.948     4.102788E-5
         6663.891     4.419402E-5
         6669.838     4.750053E-5
         6675.787     5.149078E-5
         6681.745     5.552039E-5
         6687.701     5.960278E-5
          6693.67     6.475490E-5
         6699.644     7.056551E-5
          6705.62     7.629623E-5
         6711.604     8.261863E-5
         6717.594     9.058503E-5
         6723.586     9.866387E-5
         6729.583     1.068137E-4
         6735.585     1.177172E-4
         6741.597     1.289437E-4
         6747.613     1.405277E-4
         6753.632     1.545367E-4
          6759.66     1.701335E-4
         6765.692     1.874201E-4
         6771.723     2.064073E-4
         6777.767     2.295371E-4
         6783.813     2.542438E-4
         6789.867     2.798621E-4
         6795.927     3.137524E-4
         6801.988     3.490912E-4
         6808.055     3.871575E-4
         6814.127     4.347771E-4
         6820.209     4.869765E-4
         6826.296     5.429275E-4
         6832.385     6.089784E-4
         6838.482     6.908575E-4
         6844.586     7.747546E-4
         6850.687     8.634517E-4
         6856.801     9.868037E-4
         6862.917       0.0011133
         6869.042     0.001243432
         6875.173      0.00142159
         6881.305     0.001608043
         6887.446     0.001794119
         6893.586     0.001936394
         6899.738     0.002047765
         6905.896     0.002334832
         6912.056     0.002656817
         6918.225     0.003034225
         6924.399     0.003456068
         6930.572     0.003904512
         6936.757     0.004451037
         6942.944     0.005040313
         6949.141     0.005677271
         6955.343       0.0064406
         6961.546      0.00725025
          6967.76     0.008144055
         6973.971     0.009158378
         6980.195      0.01024511
         6986.424       0.0114555
         6992.656      0.01275858
         6998.897      0.01418922
         7005.143      0.01572189
         7011.392      0.01732171
         7017.645      0.01909695
         7023.904      0.02094883
         7030.173      0.02284984
         7036.448      0.02494828
         7042.724      0.02708017
         7049.009      0.02926187
         7055.292      0.03158229
         7061.589      0.03392388
         7067.892      0.03625854
         7074.196      0.03875916
          7080.51      0.04132611
         7086.829      0.04374181
          7093.15      0.04625102
         7099.477      0.04885546
         7105.809      0.05124855
         7112.151      0.05367504
         7118.498      0.05621034
         7124.848      0.05853916
         7131.207      0.06081003
         7137.571      0.06312279
         7143.933      0.06525631
         7150.309      0.06728489
         7156.687      0.06940615
         7163.074      0.07136627
         7169.467      0.07315291
         7175.862      0.07498292
         7182.262       0.0766918
         7188.668      0.07817989
         7195.084      0.07970127
         7201.506      0.08115714
         7207.929      0.08238383
         7214.362      0.08363792
         7220.801      0.08487047
         7227.237      0.08588365
         7233.688      0.08689878
         7240.144      0.08790689
         7246.601      0.08865387
         7253.069      0.08944654
         7259.538      0.09028883
         7266.017      0.09095633
         7272.498      0.09159835
         7278.989      0.09222451
         7285.481      0.09268513
         7291.979      0.09312576
         7298.487      0.09359352
         7305.001      0.09396171
         7311.517      0.09430128
         7318.038      0.09465002
         7324.569      0.09492221
         7331.103       0.0951591
         7337.646      0.09538963
          7344.19      0.09554315
         7350.745      0.09565989
         7357.301      0.09582906
         7363.867      0.09594928
         7370.436      0.09603075
         7377.014      0.09605195
         7383.593      0.09605443
         7390.183      0.09604219
         7396.775      0.09606155
         7403.372        0.096012
         7409.979      0.09589694
         7416.589      0.09583937
         7423.208      0.09576901
         7429.829      0.09568509
          7436.46      0.09550549
         7443.097      0.09532525
         7449.736      0.09514729
         7456.381      0.09500264
         7463.036      0.09483182
         7469.692      0.09462865
         7476.359      0.09435678
         7483.027       0.0941086
         7489.702      0.09389251
         7496.386      0.09367199
         7503.077      0.09343644
         7509.769      0.09318373
         7516.471      0.09293724
         7523.175      0.09264232
          7529.89      0.09229335
         7536.606      0.09200824
         7543.328      0.09173697
         7550.061       0.0914781
         7556.794      0.09118179
         7563.539      0.09085548
          7570.29      0.09050273
         7577.042      0.09015697
           7583.8       0.0898153
         7590.568      0.08947515
         7597.339      0.08911853
         7604.119      0.08881172
         7610.906      0.08853369
         7617.694      0.08823451
         7624.489      0.08787823
          7631.29      0.08750261
           7638.1      0.08716766
         7644.917       0.0868866
         7651.736      0.08660613
         7658.565      0.08626629
         7665.396      0.08590797
         7672.233      0.08556113
         7679.081      0.08524747
          7685.93      0.08496079
          7692.79      0.08466841
         7699.655      0.08436205
         7706.523      0.08406778
         7713.401      0.08377425
         7720.276      0.08348242
         7727.167      0.08321359
         7734.063      0.08294137
         7740.961      0.08266376
          7747.87      0.08236602
         7754.785      0.08210137
         7761.697      0.08185756
         7768.625      0.08163139
         7775.554      0.08139117
         7782.494      0.08113897
         7789.439      0.08087196
         7796.387      0.08063217
         7803.345      0.08038905
         7810.301      0.08014357
         7817.271      0.07996982
         7824.249      0.07974663
         7831.227      0.07950023
         7838.216      0.07929158
         7845.212      0.07908722
         7852.209      0.07890047
         7859.213      0.07874849
         7866.223      0.07851057
         7873.244      0.07827745
         7880.271        0.078065
         7887.299      0.07791229
         7894.338      0.07771058
         7901.375      0.07748327
         7908.427      0.07727382
         7915.485      0.07707734
         7922.545       0.0768805
         7929.616      0.07667629
         7936.693      0.07644604
         7943.772      0.07625851
         7950.858       0.0761046
          7957.95      0.07591674
         7965.052      0.07569367
         7972.161      0.07545976
         7979.271       0.0752337
         7986.393      0.07505152
         7993.521      0.07485276
         8000.646      0.07462154
         8007.786      0.07428189
         8014.929      0.07395354
         8022.082      0.07361748
         8029.242      0.07325146
         8036.403      0.07289541
         8043.576      0.07251172
         8050.746      0.07211052
         8057.931      0.07179796
         8065.123      0.07140049
         8072.316      0.07100633
         8079.521      0.07068896
         8086.731      0.07026673
          8093.94      0.06988011
         8101.164      0.06951328
         8108.389      0.06907119
         8115.626      0.06865724
         8122.869      0.06825589
         8130.114      0.06786069
          8137.37      0.06741747
         8144.628      0.06701639
         8151.893      0.06662128
         8159.168      0.06617627
         8166.446      0.06578432
         8173.734      0.06536487
         8181.029      0.06490833
         8188.326      0.06442077
          8195.63      0.06403735
         8202.939      0.06365074
         8210.261      0.06321503
         8217.588      0.06280772
         8224.918      0.06238909
         8232.259       0.0619581
         8239.602      0.06151276
          8246.95      0.06111218
         8254.311      0.06070672
         8261.673      0.06029895
         8269.047      0.05989894
         8276.427      0.05952731
         8283.809      0.05912841
         8291.197      0.05871982
         8298.597      0.05841198
         8305.999       0.0580474
         8313.412      0.05770014
         8320.827      0.05737796
         8328.253      0.05697138
         8335.687       0.0566152
         8343.121      0.05626593
         8350.563      0.05592434
         8358.011      0.05582159
         8365.471      0.05567709
         8372.937      0.05555174
         8380.409      0.05547497
         8387.879       0.0553293
         8395.365      0.05524856
         8402.854      0.05516217
         8410.353      0.05502465
         8417.859      0.05487793
         8425.367      0.05479863
         8432.887      0.05469871
         8440.408      0.05452688
         8447.937       0.0544166
         8455.477      0.05426577
         8463.019      0.05408428
         8470.571      0.05388409
         8478.127      0.05373992
         8485.693      0.05352964
         8493.262      0.05330433
         8500.842       0.0530824
         8508.425      0.05282079
         8516.019      0.05253582
         8523.614      0.05222916
         8531.221      0.05189329
          8538.83      0.05149652
         8546.446      0.05112362
         8554.074      0.05070771
         8561.704      0.05025231
         8569.345       0.0498003
         8576.993       0.0493306
         8584.644      0.04880254
         8592.301      0.04823597
         8599.969      0.04766496
          8607.64      0.04713088
         8615.321      0.04653285
         8623.006      0.04591263
         8630.702      0.04529678
         8638.405       0.0446406
         8646.105      0.04397833
         8653.821      0.04332748
          8661.54       0.0426803
         8669.271      0.04198929
         8677.008      0.04129777
         8684.747      0.04063957
         8692.493      0.04000072
         8700.251      0.03935599
         8708.012      0.03862359
         8715.783      0.03804197
         8723.563      0.03746371
         8731.343      0.03685175
         8739.136      0.03634614
         8746.926      0.03582671
         8754.732      0.03532889
         8762.546      0.03487001
         8770.361      0.03445909
         8778.188      0.03403876
         8786.019      0.03369202
         8793.859      0.03338332
         8801.703      0.03309996
         8809.554      0.03284734
         8817.416        0.032678
         8825.286      0.03254107
         8833.157      0.03242799
         8841.041      0.03234749
         8848.922      0.03237982
         8856.819      0.03236111
         8864.724       0.0324022
         8872.631      0.03248337
          8880.55      0.03256024
         8888.476      0.03271855
         8896.403      0.03283637
         8904.338      0.03296512
          8912.28      0.03307714
         8920.234      0.03310781
         8928.195      0.03318606
         8936.159      0.03308928
         8944.135      0.03291139
         8952.117       0.0326367
         8960.097      0.03216996
         8968.094      0.03143441
         8976.093      0.03055388
         8984.104      0.02943797
         8992.122      0.02810094
         9000.143      0.02664347
         9008.175       0.0248685
         9016.205      0.02311663
         9024.252      0.02126154
         9032.306       0.0193525
         9040.362      0.01754301
         9048.431       0.0156752
         9056.506      0.01400938
         9064.579      0.01240676
         9072.669      0.01090508
         9080.761     0.009598731
         9088.865     0.008358562
         9096.978     0.007302549
         9105.092     0.006329933
         9113.218     0.005466199
         9121.341     0.004730007
         9129.481     0.004033708
          9137.63     0.003484973
          9145.78     0.002975971
         9153.942     0.002533044
         9162.112     0.002217871
         9170.284     0.002101675
         9178.464     0.001986937
         9186.655     0.001873618
         9194.849     0.001761865
         9203.056     0.001651534
         9211.264      0.00154281
         9219.485     0.001435539
         9227.708     0.001329901
         9235.938     0.001225819
         9244.182     0.001123249
         9252.427     0.001022301
         9260.685     9.228190E-4
         9268.949     8.249917E-4
         9277.217     7.288785E-4
         9285.492     6.499655E-4
         9293.779     5.868033E-4
         9302.068     5.326497E-4
          9310.37     4.800786E-4
         9318.675     4.387862E-4
         9326.991     3.978203E-4
         9335.315     3.623749E-4
         9343.637     3.304367E-4
         9351.977     3.004609E-4
         9360.317     2.751597E-4
         9368.672     2.504925E-4
         9377.033     2.294965E-4
         9385.396     2.097978E-4
         9393.768     1.922410E-4
         9402.152     1.767676E-4
         9410.538     1.612605E-4
         9418.937     1.486608E-4
         9427.338     1.367187E-4
         9435.752     1.259398E-4
         9444.173     1.161483E-4
         9452.592     1.071527E-4
         9461.028     9.888022E-5
         9469.472     9.129228E-5
         9477.918     8.451012E-5
         9486.377     7.804474E-5
         9494.838     7.204399E-5
         9503.313     6.673539E-5
         9511.788     6.213913E-5
         9520.272     5.781143E-5
          9528.77     5.350220E-5
         9537.269     5.005849E-5
          9545.78     4.652595E-5
           9554.3     4.325318E-5
         9562.821     4.034480E-5
         9571.351     3.755779E-5
         9579.894     3.531466E-5
         9588.438     3.272933E-5
         9596.995     3.071891E-5
         9605.561     2.863659E-5
         9614.128     2.673565E-5
         9622.704     2.510635E-5
         9631.286     2.347540E-5
         9639.882     2.217801E-5
         9648.485     2.068196E-5
         9657.092     1.930031E-5
         9665.711     1.808800E-5
         9674.332     1.704808E-5
         9682.961     1.606316E-5
         9691.603     1.504884E-5
         9700.252     1.423765E-5
         9708.904     1.333644E-5
         9717.569     1.264263E-5
         9726.237     1.195837E-5
         9734.912     1.124284E-5
         9743.601     1.055106E-5
         9752.291     9.952478E-6
         9760.995     9.430916E-6
         9769.701     8.773399E-6
         9778.421     8.331882E-6
         9787.147     7.838554E-6
         9795.872     7.341825E-6
         9804.614     6.894491E-6
         9813.359     6.517508E-6
         9822.118     6.179573E-6
         9830.884     5.833095E-6
         9839.652     5.622023E-6
         9848.435     5.174023E-6
         9857.219     4.897423E-6
         9866.011     4.628595E-6
         9874.816     4.410972E-6
         9883.624     4.187572E-6
         9892.444     3.911828E-6
         9901.273     3.698441E-6
         9910.104     3.433693E-6
         9918.944     3.282523E-6
         9927.791     3.080058E-6
         9936.651     2.913226E-6
         9945.521     2.725420E-6
         9954.391     2.589738E-6
         9963.275     2.467325E-6
         9972.162     2.263509E-6
         9981.057     2.107427E-6
         9989.964     2.005881E-6
          9998.88     1.896503E-6
          10007.8     1.793818E-6
         10016.72     1.727192E-6
         10025.67     1.667773E-6
          10034.6     1.580146E-6
         10043.56     1.493084E-6
         10052.52     1.448739E-6
         10061.49     1.402860E-6
         10070.47     1.280911E-6
         10079.46     1.247792E-6
         10088.45     1.238555E-6
         10097.44     1.222611E-6
         10106.46     1.107981E-6
         10115.48     1.065695E-6
          10124.5     1.042074E-6
         10133.53     9.835710E-7
         10142.58     9.477740E-7
         10151.62     9.125293E-7
         10160.68     8.627857E-7
         10169.74     8.029073E-7
         10178.81     7.462911E-7
          10187.9     7.385885E-7
         10196.99     7.033383E-7
         10206.08     6.480751E-7
         10215.19     6.237349E-7
         10224.31     6.229685E-7
         10233.43     5.947526E-7
         10242.56     5.396637E-7
         10251.69     5.139742E-7
         10260.85     4.812954E-7
           10270.     4.752139E-7
         10279.16     4.686036E-7
         10288.33     4.450257E-7
         10297.51     4.158868E-7
          10306.7     4.054387E-7
         10315.89     3.777449E-7
          10325.1     3.592213E-7
          10334.3     3.381087E-7
         10343.53     3.109639E-7
         10352.76     3.045879E-7
         10361.99     2.877858E-7
         10371.25     2.600219E-7
          10380.5     2.561697E-7
         10389.76     2.337126E-7
         10399.02     2.246045E-7
          10408.3     2.090263E-7
         10417.59     2.027365E-7
         10426.89     1.801137E-7
         10436.19     1.686112E-7
         10445.49     1.584199E-7
         10454.82     1.482498E-7
         10464.15     1.343198E-7
         10473.48     1.125004E-7
         10482.82     9.936689E-8
         10492.17     1.013597E-7
         10501.54     9.879379E-8
         10510.91     8.572871E-8
         10520.29     8.279457E-8
         10529.67     8.639643E-8
         10539.07     7.810717E-8
         10548.47     6.856643E-8
         10557.88     7.056233E-8
         10567.31     7.293916E-8
         10576.73     7.306485E-8
         10586.17     7.199194E-8
         10595.61     6.791721E-8
         10605.06     6.233391E-8
         10614.53     5.759796E-8
           10624.     5.829622E-8
         10633.48     6.190837E-8
         10642.96     5.909720E-8
         10652.45     5.562369E-8
         10661.97     5.457565E-8
         10671.48     5.562994E-8
         10680.99     5.603289E-8
         10690.53     5.035844E-8
         10700.07     4.386270E-8
         10709.61     4.742518E-8
         10719.16     4.670924E-8
         10728.72     4.635950E-8
         10738.31     4.110424E-8
         10747.88     4.095623E-8
         10757.47     4.000404E-8
         10767.08     3.911362E-8
         10776.67     3.852654E-8
         10786.29     3.694321E-8
         10795.91     3.577291E-8
         10805.54     3.532779E-8
         10815.18     3.323448E-8
         10824.83     3.086418E-8
         10834.49     3.020270E-8
         10844.17     2.917467E-8
         10853.84     2.785129E-8
         10863.52     2.756587E-8
         10873.21     2.695038E-8
         10882.91     2.583940E-8
         10892.63     2.308358E-8
         10902.35     2.238655E-8
         10912.07     2.217357E-8
         10921.81     2.114148E-8
         10931.54     1.951823E-8
         10941.31     1.870224E-8
         10951.07     1.763323E-8
         10960.83     1.563820E-8
         10970.62     1.577858E-8
         10980.39     1.460268E-8
          10990.2     1.398349E-8
           11000.     1.240765E-8
