#  Table pcf702wsys.tab  Mon 12:21:19 02-Jun-97

#      WAVELENGTH      THROUGHPUT
#       angstroms                

            1850.     3.833629E-8
         1851.651     8.681091E-8
         1853.301     1.357109E-7
         1854.956     1.851803E-7
         1856.611     2.350615E-7
         1858.267     2.854260E-7
         1859.925     3.363063E-7
         1861.584     3.064753E-7
         1863.246     2.724722E-7
         1864.909     2.381228E-7
         1866.572     2.034507E-7
         1868.237     1.684291E-7
         1869.904     1.330379E-7
         1871.573     1.638775E-7
         1873.242     1.990782E-7
         1874.913     2.346189E-7
         1876.585     2.705039E-7
          1878.26     3.067616E-7
         1879.937     3.432325E-7
         1881.613     3.321111E-7
         1883.292     3.189993E-7
         1884.973     3.057590E-7
         1886.654     2.924050E-7
         1888.338     2.789207E-7
         1890.023     2.654760E-7
         1891.709     2.637098E-7
         1893.396     2.619211E-7
         1895.086     2.601088E-7
         1896.775     2.582763E-7
         1898.469     2.564176E-7
         1900.163     2.518767E-7
         1901.857     2.222883E-7
         1903.555     1.923992E-7
         1905.254     1.622444E-7
         1906.953     1.318451E-7
         1908.655     1.011610E-7
         1910.357     7.414752E-8
         1912.061     6.172767E-8
         1913.768     4.919117E-8
         1915.476     3.654388E-8
         1917.184     2.379364E-8
         1918.894     1.093197E-8
         1920.606     7.874525E-9
          1922.32     2.298841E-8
         1924.035     3.823278E-8
         1925.752     5.360038E-8
          1927.47     6.910800E-8
         1929.189     8.473957E-8
          1930.91     8.682360E-8
         1932.634     7.667519E-8
         1934.358     6.643651E-8
         1936.084     5.611385E-8
         1937.811     4.569896E-8
          1939.54     3.518634E-8
          1941.27     2.868705E-8
         1943.003     2.361898E-8
         1944.737     1.850602E-8
          1946.47     1.335457E-8
         1948.207     8.151785E-9
         1949.947     2.900703E-9
         1951.685     4.004209E-9
         1953.427     5.320306E-9
         1955.171     6.647648E-9
         1956.913     7.984665E-9
          1958.66     9.334674E-9
         1960.408     1.027439E-8
         1962.157     9.830383E-9
         1963.908     9.381962E-9
         1965.658     8.929965E-9
         1967.413     8.473266E-9
         1969.169     8.012361E-9
         1970.925     1.236252E-8
         1972.684     2.110323E-8
         1974.444     2.991359E-8
         1976.205     3.879925E-8
         1977.969     4.777105E-8
         1979.734     5.680811E-8
           1981.5     5.958276E-8
         1983.268     6.125008E-8
         1985.037     6.292912E-8
         1986.809     6.462179E-8
         1988.581     6.632614E-8
         1990.355     6.544923E-8
         1992.131     5.415946E-8
         1993.908     4.277161E-8
         1995.688     3.127117E-8
         1997.467     1.969338E-8
          1999.25     8.002273E-9
         2001.034     3.064378E-9
         2002.818     3.078174E-9
         2004.606     3.092034E-9
         2006.396     3.105924E-9
         2008.184     3.119834E-9
         2009.976     3.133799E-9
         2011.769     3.500099E-9
         2013.565     3.874849E-9
         2015.362     4.253197E-9
         2017.158     4.634666E-9
         2018.958     5.020207E-9
          2020.76     5.773753E-9
         2022.563     7.035466E-9
         2024.368     8.310134E-9
         2026.173     9.596087E-9
         2027.982     1.089513E-8
         2029.791     1.220566E-8
         2031.602     2.231570E-8
         2033.414     3.367074E-8
         2035.228     4.513422E-8
         2037.044     5.671374E-8
         2038.861     6.839580E-8
         2040.681     7.095279E-8
         2042.502     5.799540E-8
         2044.324     4.491993E-8
         2046.147     3.171974E-8
         2047.974     1.838439E-8
           2049.8     4.930223E-9
          2051.63     4.040787E-9
         2053.461     4.707226E-9
         2055.291     5.379007E-9
         2057.125     6.057685E-9
         2058.961     6.742572E-9
         2060.798     7.022817E-9
         2062.637     6.768349E-9
         2064.477     6.511514E-9
         2066.318     6.252163E-9
         2068.164     5.989937E-9
         2070.007     5.725238E-9
         2071.855     5.356364E-9
         2073.704     4.984055E-9
         2075.553     4.608490E-9
         2077.405     4.229459E-9
         2079.259     3.846591E-9
         2081.113     5.493053E-9
         2082.971     8.515808E-9
         2084.829     1.156308E-8
         2086.688     1.463658E-8
          2088.55     1.773886E-8
         2090.414     2.179365E-8
         2092.279     2.913346E-8
         2094.145     3.653384E-8
         2096.014     4.400285E-8
         2097.885     5.153404E-8
         2099.756     5.912365E-8
          2101.63     5.705766E-8
         2103.503     5.351407E-8
         2105.381     4.993596E-8
          2107.26     4.632647E-8
         2109.139     4.268824E-8
         2111.022     3.769930E-8
         2112.906     3.155424E-8
         2114.789     2.536693E-8
         2116.677     1.912110E-8
         2118.564     1.282860E-8
         2120.455     7.837461E-9
         2122.348     7.101649E-9
         2124.241     6.360571E-9
         2126.135     5.613536E-9
         2128.033     4.860226E-9
         2129.932     4.100900E-9
         2131.832     4.936349E-9
         2133.734     5.837350E-9
         2135.637     6.744827E-9
         2137.544     7.660097E-9
          2139.45     8.582784E-9
         2141.359     1.204015E-8
          2143.27     1.655317E-8
         2145.182     2.109809E-8
         2147.096     2.567973E-8
         2149.011     3.029297E-8
         2150.929     3.118503E-8
         2152.848     2.806946E-8
         2154.768     2.493089E-8
         2156.692     2.176519E-8
         2158.615     1.858231E-8
         2160.541     1.563987E-8
         2162.469     1.336615E-8
         2164.397     1.107961E-8
          2166.33     8.772939E-9
         2168.263     6.451567E-9
         2170.196     4.703662E-9
         2172.133     8.159780E-9
          2174.07     1.163517E-8
         2176.011     1.513519E-8
         2177.953     1.865730E-8
         2179.895     2.219891E-8
          2181.84     1.935264E-8
         2183.787     1.612123E-8
         2185.735     1.287228E-8
         2187.686     9.602467E-9
         2189.637     6.315395E-9
          2191.59     5.731342E-9
         2193.546     5.768088E-9
         2195.503     5.804983E-9
         2197.462     5.842016E-9
         2199.423     5.879231E-9
         2201.385     5.732591E-9
         2203.348     5.505620E-9
         2205.315     5.274152E-9
         2207.283     5.038332E-9
         2209.252     4.798287E-9
         2211.222     5.967302E-9
         2213.196     8.028477E-9
          2215.17     1.011996E-8
         2217.147     1.224502E-8
         2219.125     1.440227E-8
         2221.104     1.707093E-8
         2223.086     2.016796E-8
         2225.071     2.331225E-8
         2227.055     2.649620E-8
         2229.042     2.972979E-8
         2231.031     2.887852E-8
         2233.021     2.414528E-8
         2235.015     1.933504E-8
         2237.008     1.445924E-8
         2239.003     9.511087E-9
         2241.002     7.505871E-9
         2242.999     8.495271E-9
         2245.002     9.499744E-9
         2247.005     1.051643E-8
         2249.009     1.154660E-8
         2251.016     1.241375E-8
         2253.024     1.311764E-8
         2255.033     1.383010E-8
         2257.046     1.455169E-8
         2259.061     1.528192E-8
         2261.075     1.761637E-8
         2263.092     2.138384E-8
         2265.112     2.520154E-8
         2267.134     2.906739E-8
         2269.156     3.297880E-8
         2271.181     3.368226E-8
         2273.207     3.204871E-8
         2275.234     3.039266E-8
         2277.266     2.871199E-8
         2279.296     2.701207E-8
          2281.33     2.661456E-8
         2283.366     2.691777E-8
         2285.402     2.722280E-8
         2287.441     2.753039E-8
         2289.483     2.784015E-8
         2291.525     2.521611E-8
          2293.57     2.155551E-8
         2295.615     1.785532E-8
         2297.663     1.410996E-8
         2299.715     1.031608E-8
         2301.765     9.205836E-9
          2303.82     8.522688E-9
         2305.876     7.830813E-9
         2307.932     7.130593E-9
         2309.992     6.421067E-9
         2312.051     6.736349E-9
         2314.116     7.059576E-9
          2316.18     7.385899E-9
         2318.246     7.715635E-9
         2320.315     8.059803E-9
         2322.385     8.467211E-9
         2324.457     8.879180E-9
         2326.531     9.295193E-9
         2328.606     9.715564E-9
         2330.685     9.807597E-9
         2332.764     9.218970E-9
         2334.845     8.623191E-9
         2336.927     8.020371E-9
         2339.012     7.410406E-9
         2341.101     7.235734E-9
         2343.188     7.458822E-9
         2345.279     7.684067E-9
         2347.372     7.911584E-9
         2349.467     8.141225E-9
         2351.562     8.466663E-9
         2353.661     8.827702E-9
         2355.759     9.191731E-9
         2357.862     9.559744E-9
         2359.966     9.931244E-9
         2362.071     9.427040E-9
         2364.179     8.902309E-9
         2366.288     8.372139E-9
         2368.398     7.836137E-9
         2370.512     7.616038E-9
         2372.628     8.406607E-9
         2374.744     9.204329E-9
         2376.863     1.001024E-8
         2378.983     1.082344E-8
         2381.105     1.239320E-8
          2383.23     1.467215E-8
         2385.357     1.697276E-8
         2387.485     1.929406E-8
         2389.615     2.163717E-8
         2391.747     2.695980E-8
         2393.881     3.298388E-8
         2396.017     3.906788E-8
         2398.154     4.520433E-8
         2400.293     5.057813E-8
         2402.435     5.081067E-8
          2404.58     5.104386E-8
         2406.724     5.127747E-8
         2408.872     5.151186E-8
         2411.022     4.865037E-8
         2413.171     4.233668E-8
         2415.326     3.595333E-8
         2417.479     2.952395E-8
         2419.637     2.302724E-8
         2421.796     1.983056E-8
         2423.957     1.728856E-8
          2426.12     1.472238E-8
         2428.284     1.213512E-8
         2430.451     1.085574E-8
         2432.619     1.465867E-8
         2434.789     1.849331E-8
         2436.962     2.236282E-8
         2439.136     2.626430E-8
         2441.312     2.581951E-8
          2443.49     2.247720E-8
          2445.67     1.910450E-8
         2447.853     1.570277E-8
         2450.036     1.235757E-8
         2452.222     1.387941E-8
         2454.409     1.541341E-8
           2456.6     1.696066E-8
         2458.792     1.851999E-8
         2460.985     1.887602E-8
          2463.18     1.773828E-8
         2465.379     1.659021E-8
         2467.579     1.543266E-8
         2469.778     1.426691E-8
         2471.983     1.487495E-8
          2474.19     1.568841E-8
         2476.396     1.650653E-8
         2478.606     1.733178E-8
         2480.817     1.717853E-8
         2483.029     1.533649E-8
         2485.247     1.347723E-8
         2487.462     1.160662E-8
         2489.682     9.718861E-9
         2491.904     9.504415E-9
         2494.125     9.571075E-9
         2496.353     9.638182E-9
         2498.579     9.705529E-9
         2500.808     9.751381E-9
          2503.04     9.758859E-9
         2505.272     9.766192E-9
         2507.509     9.773388E-9
         2509.745     9.780439E-9
         2511.985     1.223035E-8
         2514.225     1.501248E-8
         2516.468     1.781606E-8
         2518.714     2.064241E-8
         2520.962     2.125810E-8
          2523.21     1.888220E-8
         2525.462     1.648610E-8
         2527.715     1.407286E-8
         2529.971     1.163928E-8
         2532.229     1.274473E-8
         2534.486     1.390402E-8
         2536.748     1.507334E-8
          2539.01     1.622416E-8
         2541.277     1.614955E-8
         2543.545     1.512060E-8
         2545.813     1.408793E-8
         2548.084     1.305099E-8
         2550.358     1.213780E-8
         2552.635     1.191006E-8
         2554.911     1.168145E-8
         2557.191     1.145161E-8
         2559.471     1.122100E-8
         2561.755     1.612884E-8
         2564.042     2.260964E-8
         2566.329     2.911226E-8
         2568.619     3.564356E-8
         2570.908     3.948783E-8
         2573.205     3.922479E-8
           2575.5     3.896058E-8
         2577.797     3.869479E-8
         2580.097     3.816619E-8
         2582.399     3.171824E-8
         2584.704     2.523934E-8
          2587.01     1.873510E-8
         2589.318     1.220766E-8
         2591.629     1.265550E-8
          2593.94     1.604445E-8
         2596.254     1.944637E-8
         2598.573     2.286625E-8
         2600.889     2.714109E-8
          2603.21     3.280477E-8
         2605.532     3.848725E-8
         2607.856     4.419259E-8
         2610.185     4.911799E-8
         2612.512     4.465764E-8
         2614.843     4.017339E-8
         2617.177     3.566996E-8
          2619.51     3.115311E-8
         2621.849     3.548721E-8
         2624.188     4.218984E-8
         2626.528     4.891919E-8
         2628.873     5.568009E-8
         2631.217     5.373715E-8
         2633.566     4.367589E-8
         2635.916     3.357274E-8
         2638.267     2.343313E-8
          2640.62     1.651348E-8
         2642.977     1.870281E-8
         2645.334     2.089971E-8
         2647.695     2.310666E-8
         2650.057     2.522498E-8
         2652.422     2.344647E-8
         2654.788     2.166141E-8
         2657.157     1.986744E-8
         2659.526     1.806792E-8
         2661.899     1.928970E-8
         2664.275     2.127492E-8
         2666.652     2.326694E-8
         2669.031     2.526799E-8
         2671.412     2.556885E-8
         2673.796     2.469637E-8
         2676.181     2.382053E-8
          2678.57     2.294019E-8
          2680.96     2.503775E-8
          2683.35     3.158917E-8
         2685.746     3.817887E-8
          2688.14     4.478323E-8
          2690.54     4.784457E-8
         2692.941     3.855656E-8
         2695.343     2.923437E-8
         2697.748     1.986870E-8
         2700.153     1.144842E-8
         2702.563     1.735156E-8
         2704.975     2.329632E-8
         2707.387     2.927974E-8
         2709.804     3.530982E-8
         2712.222     3.625955E-8
         2714.642     3.676144E-8
         2717.063     3.726618E-8
         2719.486     3.777387E-8
         2721.915     3.339572E-8
         2724.343     2.767553E-8
         2726.772     2.191388E-8
         2729.205     1.611068E-8
          2731.64     1.379181E-8
         2734.078     1.317445E-8
         2736.517     1.255283E-8
         2738.958     1.192662E-8
         2741.402     1.380071E-8
         2743.849     1.755736E-8
         2746.296     2.133769E-8
         2748.747     2.514668E-8
         2751.198     2.821321E-8
         2753.653     3.049287E-8
         2756.111     3.277796E-8
         2758.569     3.506712E-8
         2761.031     3.387972E-8
         2763.495     2.784656E-8
         2765.958     2.180629E-8
         2768.427     1.574451E-8
         2770.898     1.189679E-8
         2773.369     1.195102E-8
         2775.844     1.200539E-8
          2778.32     1.205986E-8
         2780.799     1.246554E-8
          2783.28     1.361237E-8
         2785.764     1.476197E-8
         2788.249     1.591342E-8
         2790.736     1.666808E-8
         2793.227     1.647240E-8
          2795.72     1.627627E-8
         2798.213     1.607980E-8
         2800.709     1.697284E-8
         2803.209     2.062008E-8
         2805.709     2.427329E-8
         2808.213     2.793715E-8
         2810.718     3.163126E-8
         2813.226     3.539737E-8
         2815.736     3.916949E-8
         2818.247     4.294980E-8
         2820.764     4.442108E-8
         2823.278     4.056629E-8
         2825.798     3.669838E-8
          2828.32     3.282218E-8
         2830.843     3.024850E-8
         2833.369     3.028168E-8
         2835.898     3.031490E-8
         2838.426     3.034814E-8
         2840.959     3.106570E-8
         2843.495     3.290904E-8
         2846.031     3.475509E-8
         2848.571     3.660632E-8
         2851.112     3.483681E-8
         2853.655     2.839815E-8
         2856.202     2.194272E-8
         2858.751     1.547421E-8
         2861.301     1.370204E-8
         2863.853     1.645297E-8
         2866.407     1.920963E-8
         2868.965     2.197361E-8
         2871.526     2.543861E-8
         2874.087     2.938000E-8
         2876.652     3.333204E-8
         2879.218     3.728909E-8
         2881.788     3.484691E-8
         2884.358     2.959473E-8
         2886.931     2.433193E-8
         2889.507     1.905598E-8
         2892.084     2.062463E-8
         2894.666     2.382060E-8
         2897.248     2.702106E-8
         2899.832     3.022722E-8
         2902.421     3.156238E-8
          2905.01     3.276301E-8
         2907.601     3.396147E-8
         2910.198     3.470089E-8
          2912.79     2.989325E-8
         2915.392     2.508202E-8
         2917.992     2.028534E-8
         2920.594     1.655901E-8
         2923.203     1.642351E-8
         2925.807     1.628850E-8
          2928.42     1.615332E-8
         2931.033     2.121281E-8
         2933.646     3.418842E-8
         2936.266     4.716259E-8
         2938.885     6.009522E-8
         2941.506     6.402922E-8
         2944.131     6.131212E-8
         2946.757     5.860162E-8
         2949.387     5.589449E-8
         2952.018     4.828663E-8
         2954.653     3.920010E-8
          2957.29     3.013150E-8
         2959.926     2.109182E-8
         2962.567     1.851094E-8
          2965.21     1.612289E-8
         2967.856     1.373850E-8
         2970.505     1.200419E-8
         2973.155     1.301064E-8
         2975.808     1.401554E-8
         2978.461     1.501695E-8
         2981.121     1.595302E-8
          2983.78     1.679672E-8
         2986.441     1.763848E-8
         2989.104     1.847823E-8
         2991.772     1.801868E-8
         2994.442     1.690487E-8
         2997.113     1.579403E-8
         2999.788     1.468484E-8
         3002.464     1.384067E-8
         3005.142     1.302080E-8
         3007.826     1.220166E-8
         3010.507     1.185464E-8
         3013.194     1.351988E-8
         3015.883     1.518119E-8
         3018.573     1.683748E-8
         3021.267     1.860005E-8
          3023.96     2.047891E-8
          3026.66     2.235655E-8
          3029.36     2.422735E-8
         3032.062     2.496968E-8
          3034.77     2.536210E-8
         3037.475     2.575266E-8
         3040.186     2.583779E-8
         3042.897     2.179254E-8
         3045.612     1.775680E-8
         3048.332     1.372594E-8
         3051.051     1.125265E-8
         3053.772     1.123330E-8
         3056.497     1.121389E-8
         3059.222     1.119448E-8
         3061.954     1.573314E-8
         3064.685     2.206561E-8
         3067.418     2.838200E-8
         3070.156     3.457619E-8
         3072.896     3.895481E-8
         3075.637     4.331920E-8
          3078.38     4.767129E-8
         3081.126     4.578763E-8
         3083.877     3.495012E-8
         3086.628     2.415422E-8
         3089.381     1.338852E-8
         3092.137     1.605125E-8
         3094.895     2.258414E-8
         3097.659     2.910681E-8
         3100.422     3.373121E-8
         3103.187     2.793603E-8
         3105.955     2.211825E-8
         3108.729     1.627060E-8
         3111.501     1.320088E-8
         3114.277     1.249072E-8
         3117.056     1.177733E-8
         3119.836     1.106163E-8
         3122.621     1.197784E-8
         3125.406     1.299949E-8
         3128.195     1.402560E-8
         3130.985     1.434271E-8
         3133.778     1.335323E-8
         3136.575     1.235928E-8
         3139.373     1.136206E-8
         3142.175     1.115096E-8
         3144.979     1.116771E-8
         3147.784     1.118448E-8
         3150.592     1.120125E-8
         3153.405     1.121800E-8
         3156.218     1.123475E-8
         3159.035     1.125154E-8
         3161.851     1.803337E-8
         3164.674     2.839828E-8
         3167.497     3.879054E-8
         3170.322     4.685598E-8
         3173.152     3.652076E-8
         3175.982     2.615107E-8
         3178.816     1.573516E-8
         3181.652     1.545285E-8
          3184.49     2.247182E-8
         3187.333     2.952750E-8
         3190.175     3.589555E-8
         3193.022     3.154281E-8
          3195.87     2.717548E-8
         3198.722     2.278865E-8
         3201.577     2.029683E-8
         3204.433     1.934883E-8
         3207.291     1.839712E-8
         3210.151     1.747291E-8
         3213.018     1.710459E-8
         3215.884     1.673525E-8
         3218.752     1.636440E-8
         3221.623     2.033514E-8
         3224.499     2.767173E-8
         3227.376     3.503703E-8
         3230.255     4.104778E-8
         3233.136     3.287384E-8
          3236.02     2.466767E-8
         3238.908     1.642428E-8
         3241.799     1.694838E-8
          3244.69     2.282428E-8
         3247.584     2.872381E-8
         3250.485     3.272517E-8
         3253.384     2.711677E-8
         3256.286     2.148622E-8
         3259.192     1.583013E-8
         3262.097     1.435093E-8
          3265.01     1.448538E-8
         3267.922     1.462012E-8
         3270.837     1.455171E-8
         3273.758     1.397563E-8
         3276.675     1.339873E-8
         3279.601     1.281804E-8
         3282.526     1.447786E-8
         3285.454     1.649951E-8
         3288.388     1.853143E-8
         3291.319     1.866008E-8
         3294.257     1.644979E-8
         3297.195     1.423217E-8
         3300.137     1.251367E-8
         3303.083     2.120643E-8
         3306.029     2.992847E-8
         3308.979     3.868928E-8
         3311.931     3.605490E-8
         3314.885     2.735716E-8
         3317.844     1.861980E-8
         3320.803     1.232780E-8
         3323.767     1.267407E-8
         3326.731     1.302145E-8
           3329.7     1.337040E-8
          3332.67     1.541247E-8
         3335.643     1.765310E-8
         3338.622     1.990519E-8
         3341.599     2.033062E-8
          3344.58     1.917411E-8
         3347.563     1.801302E-8
         3350.551     1.816435E-8
         3353.541     2.416064E-8
         3356.532     3.017736E-8
         3359.528     3.622145E-8
         3362.524     3.796110E-8
         3365.525     3.889717E-8
         3368.527     3.983631E-8
         3371.532     3.703804E-8
         3374.541     3.061871E-8
         3377.551     2.417713E-8
         3380.565     1.963860E-8
         3383.582     2.347770E-8
         3386.598     2.732749E-8
         3389.623     3.119987E-8
         3392.646     3.049333E-8
         3395.672     2.912784E-8
         3398.705     2.775505E-8
         3401.732     2.775329E-8
          3404.77     2.878336E-8
         3407.807     2.981626E-8
         3410.847     3.178272E-8
         3413.893     3.617567E-8
         3416.938     4.058103E-8
         3419.985     4.500444E-8
         3423.038     3.531859E-8
         3426.089     2.553649E-8
         3429.148     1.569628E-8
         3432.207     3.734779E-8
         3435.268     7.128016E-8
         3438.334     1.053734E-7
         3441.401     1.084812E-7
         3444.473     7.450615E-8
         3447.545     4.041538E-8
         3450.622     1.309315E-8
         3453.701     1.311452E-8
         3456.782     1.313590E-8
         3459.865     1.315733E-8
         3462.951     1.336949E-8
         3466.042     1.359135E-8
         3469.135     1.381406E-8
         3472.229     1.711983E-8
         3475.326     2.163867E-8
         3478.426     2.617628E-8
         3481.532     2.617975E-8
         3484.638     2.149533E-8
         3487.746     1.679151E-8
         3490.859     1.452142E-8
         3493.972     1.870579E-8
         3497.091     2.290999E-8
          3500.21     2.656693E-8
         3503.334     2.241721E-8
          3506.46     1.824950E-8
         3509.586     1.406895E-8
          3512.72     1.401992E-8
         3515.852     1.460361E-8
         3518.989     1.519041E-8
          3522.13     1.953848E-8
         3525.271     2.569002E-8
         3528.418     3.187156E-8
         3531.563     3.168212E-8
         3534.717     2.499358E-8
          3537.87     1.828385E-8
         3541.025     1.931380E-8
         3544.188     3.655669E-8
         3547.349     5.385231E-8
         3550.513     7.059238E-8
         3553.679     8.413226E-8
         3556.849     9.773147E-8
         3560.026     1.117186E-7
         3563.201     1.640960E-7
         3566.379     2.167008E-7
         3569.562     2.695747E-7
         3572.746     2.147606E-7
         3575.935     1.424031E-7
         3579.124     6.977361E-8
         3582.316     4.264362E-8
         3585.513     3.276207E-8
         3588.714     2.283547E-8
         3591.915     2.542990E-8
         3595.118     3.649583E-8
         3598.325     4.761191E-8
         3601.538     5.039982E-8
         3604.751     4.404685E-8
         3607.966     3.766561E-8
         3611.184     3.297454E-8
         3614.409     3.122182E-8
         3617.633     2.946335E-8
         3620.859     2.838539E-8
         3624.089     2.920388E-8
         3627.322     3.002586E-8
         3630.561     2.994956E-8
         3633.799     2.555410E-8
          3637.04     2.113870E-8
         3640.286     1.748691E-8
         3643.533     2.196815E-8
         3646.785     2.647187E-8
         3650.038     3.087993E-8
         3653.295     2.560242E-8
         3656.556     2.030044E-8
         3659.815     1.498149E-8
         3663.082     1.470448E-8
         3666.353     1.473125E-8
         3669.621     1.475801E-8
         3672.896     1.478489E-8
         3676.172     1.481181E-8
         3679.451     1.483879E-8
         3682.737     2.770444E-8
         3686.022     4.319276E-8
         3689.309     5.875009E-8
           3692.6     5.880875E-8
         3695.896     5.471803E-8
         3699.194     5.060813E-8
         3702.494     6.184280E-8
         3705.798     7.811587E-8
         3709.101     9.444204E-8
         3712.412     9.083105E-8
         3715.725     7.971739E-8
         3719.039     6.856017E-8
         3722.358     5.994517E-8
         3725.678     5.235706E-8
         3729.004     4.472914E-8
          3732.33     3.615282E-8
         3735.659     2.714273E-8
         3738.995     1.808020E-8
          3742.33     2.682761E-8
         3745.668     4.333205E-8
         3749.009     5.991139E-8
         3752.354     5.640359E-8
         3755.703     4.436169E-8
         3759.053     3.227176E-8
         3762.408     3.223001E-8
         3765.764     3.695950E-8
         3769.125     4.171301E-8
         3772.487     5.099830E-8
         3775.852     6.191792E-8
         3779.222     7.289488E-8
         3782.594     7.299035E-8
         3785.968     6.979995E-8
         3789.345     6.659452E-8
         3792.725     5.460841E-8
         3796.112     4.043867E-8
         3799.498     2.622127E-8
         3802.887     3.349807E-8
         3806.279     4.456610E-8
         3809.676     5.569204E-8
         3813.076     6.304484E-8
         3816.477     7.002330E-8
         3819.881     7.703284E-8
          3823.29     5.796311E-8
           3826.7     3.787295E-8
         3830.116     1.834003E-8
         3833.532     1.760077E-8
         3836.951     1.685811E-8
         3840.378     1.653516E-8
         3843.803     1.963950E-8
         3847.232     2.275764E-8
         3850.663     2.673375E-8
         3854.102     3.427059E-8
          3857.54     4.183223E-8
          3860.98     4.612149E-8
         3864.426     4.210713E-8
         3867.875     3.807452E-8
         3871.325     3.971091E-8
         3874.778     5.049651E-8
         3878.234     6.132957E-8
         3881.695     6.957272E-8
         3885.157     7.508707E-8
         3888.625     8.062925E-8
         3892.094     7.482254E-8
         3895.565     6.150291E-8
         3899.044     4.810662E-8
         3902.521     5.179827E-8
         3906.002     6.201915E-8
         3909.489     7.229087E-8
         3912.975     9.202575E-8
         3916.468     1.134868E-7
         3919.961     1.350269E-7
         3923.457     1.025248E-7
         3926.961     6.922472E-8
         3930.462     3.939136E-8
         3933.969     3.284788E-8
         3937.478     2.627975E-8
         3940.992     2.424487E-8
          3944.51     3.383387E-8
         3948.028     4.345818E-8
          3951.55     5.681870E-8
         3955.074     7.494953E-8
         3958.606     9.318098E-8
         3962.137     8.986274E-8
         3965.671     7.240009E-8
          3969.21     5.485179E-8
          3972.75     5.056799E-8
         3976.296     5.010257E-8
         3979.843     4.963529E-8
         3983.395     5.955148E-8
          3986.95     6.999158E-8
         3990.504     7.642493E-8
         3994.065     5.836332E-8
          3997.63     4.022488E-8
         4001.196     3.862704E-8
         4004.767     6.996933E-8
         4008.339     1.013112E-7
         4011.914     1.051533E-7
         4015.494     8.507929E-8
         4019.078     6.499381E-8
         4022.663     6.297658E-8
         4026.251     6.721777E-8
         4029.844     7.146345E-8
         4033.441     7.595819E-8
         4037.039     8.046349E-8
         4040.639     8.562124E-8
         4044.243     9.379820E-8
         4047.855     1.019894E-7
         4051.465     9.951685E-8
         4055.079     8.143208E-8
         4058.698     6.332867E-8
         4062.316     6.748525E-8
         4065.944     8.418428E-8
          4069.57     1.008694E-7
           4073.2     9.663685E-8
         4076.838     8.958293E-8
         4080.472     8.402333E-8
         4084.114     8.842032E-8
         4087.756     9.281627E-8
         4091.405     9.139926E-8
         4095.056     8.068346E-8
         4098.708     6.997162E-8
         4102.367     6.652392E-8
         4106.026     6.704724E-8
         4109.688     6.757057E-8
         4113.356     6.872229E-8
         4117.025     6.993189E-8
         4120.699     7.071900E-8
         4124.375     6.970417E-8
         4128.056     6.868840E-8
         4131.738     7.128263E-8
         4135.423     7.791748E-8
         4139.116     8.456251E-8
         4142.808     7.727735E-8
         4146.503     6.560416E-8
         4150.201     5.513238E-8
         4153.903     6.557174E-8
         4157.613     7.602362E-8
         4161.321     8.561536E-8
         4165.033     9.367217E-8
         4168.748     1.017300E-7
         4172.466     1.041741E-7
         4176.192     1.037647E-7
         4179.917     1.033555E-7
         4183.645     8.860147E-8
         4187.379     7.350928E-8
         4191.116     6.058688E-8
         4194.854     5.276944E-8
         4198.596     4.495153E-8
         4202.343     4.699206E-8
         4206.094     5.496165E-8
         4209.845     6.294792E-8
         4213.603     6.498990E-8
         4217.358     6.677805E-8
         4221.123     6.666469E-8
          4224.89     6.205192E-8
         4228.658     5.742893E-8
         4232.432     6.859881E-8
         4236.208     8.852557E-8
         4239.988     1.085166E-7
          4243.77     9.281471E-8
         4247.555     7.695922E-8
         4251.348     6.008341E-8
          4255.14     4.144133E-8
         4258.936     2.274919E-8
         4262.734     1.751188E-8
         4266.537     1.752722E-8
         4270.347     1.754260E-8
         4274.155     1.755796E-8
         4277.968     1.757335E-8
         4281.786     1.758864E-8
         4285.605     1.760382E-8
          4289.43     1.761902E-8
         4293.256     1.763420E-8
         4297.085     1.764939E-8
         4300.922     1.766456E-8
         4304.759     1.767956E-8
         4308.598     1.769458E-8
         4312.441     1.770960E-8
          4316.29     1.772463E-8
         4320.142     1.773968E-8
         4323.996     1.775472E-8
         4327.854     1.776977E-8
         4331.715     1.778483E-8
         4335.581     1.779990E-8
         4339.448     1.781497E-8
         4343.318     1.782985E-8
         4347.195     1.784473E-8
         4351.072     1.785956E-8
         4354.956     1.787424E-8
          4358.84     1.788893E-8
         4362.728     1.790377E-8
         4366.624     1.791869E-8
         4370.519     1.793358E-8
         4374.417     1.794829E-8
         4378.318     1.796301E-8
         4382.229     3.245748E-8
         4386.137     5.790151E-8
         4390.049     8.946132E-8
         4393.967     5.962333E-7
         4397.889     1.104330E-6
         4401.812     1.776185E-6
         4405.738     2.639939E-6
         4409.667     3.505857E-6
         4413.603     3.982050E-6
         4417.542     4.423145E-6
         4421.482     4.771386E-6
         4425.426     4.964823E-6
         4429.373     5.158709E-6
         4433.329     5.007486E-6
         4437.283     4.790879E-6
         4441.241     4.448182E-6
         4445.205     3.828733E-6
         4449.169     3.208130E-6
          4453.14     2.691005E-6
         4457.112     2.200775E-6
         4461.088     1.710663E-6
         4465.069     1.222560E-6
         4469.052     7.335621E-7
         4473.041     5.039101E-7
          4477.03     3.552892E-7
         4481.028     2.347132E-7
         4485.022     1.966162E-7
         4489.025     1.583748E-7
         4493.032     1.476633E-7
         4497.039     1.458212E-7
         4501.053     1.437454E-7
         4505.067     1.410102E-7
         4509.086     1.382461E-7
         4513.107     1.418312E-7
         4517.136     1.473335E-7
         4521.167     1.478280E-7
           4525.2     1.358712E-7
         4529.238     1.237981E-7
         4533.281     1.258053E-7
         4537.324     1.311336E-7
         4541.371     1.344092E-7
         4545.422     1.336008E-7
         4549.479     1.327810E-7
         4553.539     1.215968E-7
           4557.6     1.087858E-7
         4561.668     9.433992E-8
         4565.734     7.760392E-8
         4569.809     6.069869E-8
         4573.887     5.480759E-8
         4577.967     4.941744E-8
         4582.053     5.070113E-8
         4586.142     5.868385E-8
         4590.233     6.570076E-8
         4594.327     5.567574E-8
         4598.425     4.556523E-8
         4602.529     3.816904E-8
         4606.637     3.246615E-8
         4610.746     2.833414E-8
          4614.86     3.149047E-8
         4618.979     3.467284E-8
         4623.097     3.701112E-8
         4627.223     3.908388E-8
          4631.35     3.882387E-8
         4635.483     3.370386E-8
         4639.621     2.854111E-8
         4643.759     3.435602E-8
           4647.9     4.133438E-8
         4652.046     4.496311E-8
         4656.198     4.510919E-8
         4660.354     4.484621E-8
         4664.511     4.016267E-8
         4668.673     3.543840E-8
          4672.84     3.389377E-8
         4677.005     3.384638E-8
          4681.18     3.533423E-8
         4685.355     4.074744E-8
         4689.537     4.620651E-8
         4693.722     4.729451E-8
         4697.909     4.783777E-8
         4702.102     4.364439E-8
         4706.293     3.468993E-8
         4710.493     2.653787E-8
         4714.697     2.500296E-8
         4718.902     2.345640E-8
         4723.114     3.054468E-8
          4727.33     4.074881E-8
         4731.543     4.767433E-8
         4735.766     4.884187E-8
          4739.99     5.001675E-8
         4744.221     4.283191E-8
         4748.455     3.557135E-8
          4752.69     3.512786E-8
         4756.932     3.864627E-8
         4761.172     3.997068E-8
         4765.421     3.547179E-8
         4769.674     3.093787E-8
         4773.929     3.157161E-8
         4778.189     3.264313E-8
         4782.454     3.082597E-8
         4786.719     2.685040E-8
         4790.989     2.379263E-8
         4795.262     2.387218E-8
         4799.542     2.395188E-8
         4803.826     2.403165E-8
          4808.11     2.411146E-8
         4812.401     2.419123E-8
         4816.696     2.427095E-8
         4820.993     2.451056E-8
         4825.292     2.528557E-8
         4829.597     2.606597E-8
         4833.907     3.020633E-8
         4838.221     3.472528E-8
         4842.537     3.586069E-8
         4846.855     3.460035E-8
         4851.179     3.394262E-8
         4855.508     3.492151E-8
         4859.842     3.590690E-8
         4864.177     3.150244E-8
         4868.518     2.685706E-8
         4872.863     2.585648E-8
         4877.209     2.675979E-8
          4881.56     2.794200E-8
         4885.914     2.962216E-8
         4890.277     3.106460E-8
         4894.639     2.879290E-8
         4899.004     2.650414E-8
         4903.376     3.115250E-8
         4907.748     3.788577E-8
          4912.13     3.952023E-8
         4916.512     3.569377E-8
         4920.897     3.319559E-8
         4925.289     3.597697E-8
         4929.685     3.877791E-8
         4934.082     3.393778E-8
         4938.482     2.846823E-8
         4942.887     2.662842E-8
         4947.301     2.671146E-8
         4951.714     2.679448E-8
         4956.131     2.687759E-8
         4960.554     2.696079E-8
         4964.976     2.704366E-8
          4969.41     2.712677E-8
         4973.842     2.721020E-8
         4978.278     2.729376E-8
         4982.724     2.805915E-8
         4987.168     2.926046E-8
         4991.617     3.046543E-8
         4996.069     3.167083E-8
         5000.528     3.248897E-8
         5004.991     3.035041E-8
         5009.455     2.819470E-8
         5013.923     2.801967E-8
         5018.398     2.812146E-8
         5022.874     2.822355E-8
         5027.357     2.832595E-8
         5031.841     2.842824E-8
         5036.329     2.853044E-8
         5040.827     2.863294E-8
         5045.323     2.873573E-8
         5049.823     2.883865E-8
         5054.327     3.481084E-8
         5058.838     4.107482E-8
         5063.353     3.930028E-8
         5067.869     3.469795E-8
          5072.39     3.204086E-8
         5076.919     3.113704E-8
         5081.448     3.076901E-8
          5085.98     3.155695E-8
         5090.516     3.225858E-8
          5095.06     3.224694E-8
         5099.607     3.223445E-8
         5104.155     3.139886E-8
         5108.708     3.047780E-8
         5113.265     3.109060E-8
         5117.828     3.232105E-8
         5122.396     3.237719E-8
         5126.965     3.135645E-8
         5131.538     3.642564E-8
          5136.12     5.364472E-8
         5140.701     6.572562E-8
         5145.287     4.872714E-8
         5149.876     3.159712E-8
         5154.472     3.123537E-8
         5159.072     3.134113E-8
         5163.674     3.536739E-8
         5168.283     4.042145E-8
         5172.895     3.929211E-8
         5177.506     3.445314E-8
         5182.127     3.244157E-8
         5186.749     3.379278E-8
         5191.378     3.630703E-8
         5196.012     4.156913E-8
         5200.646     4.592284E-8
         5205.285     4.445796E-8
         5209.928     4.298110E-8
         5214.577     3.830039E-8
         5219.231     3.353246E-8
         5223.887     3.283131E-8
         5228.549     3.293840E-8
         5233.215     3.632860E-8
          5237.88     4.122460E-8
         5242.555     4.387556E-8
         5247.231     4.463911E-8
         5251.914     4.420238E-8
         5256.601     4.201059E-8
          5261.29     3.998123E-8
         5265.985     3.840740E-8
          5270.68     3.688730E-8
         5275.383     3.573502E-8
         5280.092     3.459397E-8
         5284.801     3.447955E-8
         5289.518     3.436356E-8
         5294.239     3.967633E-8
         5298.958     4.563934E-8
         5303.687     4.958588E-8
         5308.418     5.297206E-8
         5313.155     5.594497E-8
         5317.897     5.871803E-8
         5322.641     5.404374E-8
         5327.391     4.336150E-8
          5332.14     3.704791E-8
         5336.899     3.611204E-8
         5341.662     3.645945E-8
         5346.426     3.922517E-8
         5351.198     4.153159E-8
         5355.974     4.241680E-8
         5360.751     4.462441E-8
         5365.532     5.393736E-8
         5370.318     6.185862E-8
         5375.111     4.930090E-8
         5379.908     3.665624E-8
         5384.707     4.438803E-8
         5389.513     5.257754E-8
         5394.323     5.723591E-8
         5399.131     6.151424E-8
          5403.95     5.985173E-8
          5408.77     5.685929E-8
         5413.597     5.049813E-8
         5418.429     4.294409E-8
         5423.262     5.047654E-8
         5428.099     6.537804E-8
          5432.94     6.240364E-8
         5437.792     4.772450E-8
         5442.643     4.022538E-8
         5447.497     3.876353E-8
         5452.359     4.229282E-8
         5457.225     5.117317E-8
         5462.092     5.255259E-8
         5466.964     4.388423E-8
          5471.84     4.101754E-8
         5476.724     4.783699E-8
         5481.612     5.026325E-8
         5486.501     4.365696E-8
         5491.398     4.356206E-8
         5496.293     5.992175E-8
         5501.198     6.975016E-8
         5506.108     5.897239E-8
         5511.019     5.139933E-8
         5515.938     5.629657E-8
          5520.86     5.906008E-8
         5525.785     5.159593E-8
         5530.713     4.485363E-8
         5535.646     4.262344E-8
         5540.587     4.172454E-8
         5545.532     5.084377E-8
         5550.478     5.822987E-8
         5555.432     4.896206E-8
         5560.387     4.141438E-8
         5565.347     5.477051E-8
         5570.313     6.676486E-8
         5575.282     5.726508E-8
         5580.258     4.801533E-8
         5585.238     4.443110E-8
          5590.22     4.112345E-8
         5595.206     4.422532E-8
         5600.197     4.765855E-8
         5605.198     5.878454E-8
         5610.197     6.931742E-8
         5615.201     6.473461E-8
         5620.213     6.000750E-8
         5625.226     5.246917E-8
         5630.246     4.518068E-8
         5635.268     4.336712E-8
         5640.294     4.165690E-8
         5645.328     4.171470E-8
         5650.367     4.263242E-8
         5655.406     5.452508E-8
         5660.451     6.434247E-8
         5665.502     5.253617E-8
         5670.559     4.200377E-8
         5675.617     4.206093E-8
         5680.679     4.480868E-8
         5685.752     6.499210E-8
         5690.823     8.783014E-8
         5695.899     1.242298E-7
         5700.979     1.436341E-7
         5706.064     9.126568E-8
          5711.16     6.326903E-8
         5716.254     1.188263E-7
         5721.353     1.760054E-7
         5726.456     2.373395E-7
         5731.567     3.173360E-7
         5736.682     4.393332E-7
         5741.799     6.573868E-7
          5746.92     1.053134E-6
         5752.053     1.597622E-6
         5757.183     2.363891E-6
         5762.318     3.705409E-6
         5767.458     5.749177E-6
         5772.602     8.751783E-6
         5777.757     1.270139E-5
         5782.911     1.932753E-5
         5788.068     2.803673E-5
         5793.237     3.983821E-5
         5798.401     5.347990E-5
         5803.577     7.586932E-5
         5808.753     1.022082E-4
         5813.937     1.367320E-4
         5819.126     1.739414E-4
         5824.316     2.348366E-4
         5829.511     3.007266E-4
         5834.711     3.810788E-4
         5839.918     4.632381E-4
          5845.13     5.939514E-4
         5850.344     7.286672E-4
         5855.562     9.241935E-4
         5860.792     0.001163452
         5866.016     0.001452297
         5871.251     0.001803444
         5876.488     0.002233978
         5881.732      0.00276597
         5886.982     0.003428289
         5892.232     0.004244488
         5897.491     0.005263438
         5902.749     0.006560212
         5908.017     0.008188399
          5913.29      0.01022598
         5918.563      0.01269076
         5923.846      0.01564861
         5929.133      0.01912213
         5934.421      0.02317717
         5939.714      0.02794447
         5945.012      0.03348276
         5950.318       0.0397281
         5955.629      0.04683807
         5960.941      0.05462006
         5966.258      0.06289785
         5971.579      0.07142942
         5976.909      0.07967114
         5982.243      0.08718086
         5987.579      0.09360267
         5992.923      0.09864467
         5998.271       0.1023121
         6003.622       0.1045758
         6008.976       0.1056384
         6014.336        0.105829
         6019.704       0.1053297
         6025.076       0.1044294
          6030.45       0.1033449
         6035.832       0.1022491
         6041.219       0.1013193
         6046.604       0.1006225
         6052.001        0.100236
         6057.399       0.1002185
         6062.805       0.1004925
         6068.216       0.1008989
         6073.628       0.1012578
         6079.046       0.1015644
         6084.468       0.1017839
         6089.898       0.1019602
         6095.333       0.1022973
          6100.77       0.1028455
         6106.215       0.1036068
         6111.665       0.1046493
         6117.112       0.1059964
         6122.572       0.1076394
         6128.033       0.1095188
         6133.502       0.1116732
         6138.976       0.1139885
         6144.452       0.1163041
         6149.936       0.1184444
         6155.417       0.1204011
         6160.911       0.1222072
          6166.41       0.1237985
          6171.91       0.1252959
         6177.418       0.1267582
         6182.932       0.1282008
         6188.443       0.1296246
         6193.966       0.1310375
         6199.491       0.1323786
         6205.024        0.133707
         6210.562       0.1349363
         6216.101       0.1359799
         6221.649       0.1368383
         6227.195       0.1374921
         6232.756        0.138056
         6238.315       0.1384116
         6243.879         0.13862
         6249.452       0.1387447
         6255.029        0.138712
         6260.608       0.1386668
         6266.193       0.1385451
         6271.782       0.1383618
         6277.379       0.1380687
         6282.982        0.137832
         6288.586       0.1375757
         6294.198       0.1372994
         6299.809       0.1370172
         6305.435       0.1367869
         6311.059       0.1365365
         6316.688       0.1362799
         6322.326       0.1359959
         6327.968       0.1357215
         6333.612       0.1353816
         6339.262        0.135103
         6344.916       0.1347773
         6350.579       0.1345204
         6356.247       0.1343534
         6361.916       0.1342564
         6367.594        0.134304
         6373.277       0.1344502
         6378.961       0.1346352
         6384.651       0.1349283
         6390.346        0.135212
         6396.049       0.1355138
         6401.757       0.1358668
         6407.467       0.1362217
         6413.183       0.1365665
         6418.906       0.1369132
         6424.631       0.1372903
         6430.365       0.1376769
         6436.104       0.1380905
         6441.845       0.1385803
         6447.594       0.1390051
         6453.345         0.13949
         6459.101       0.1399374
         6464.866       0.1404669
         6470.632       0.1409265
         6476.407       0.1414199
         6482.184       0.1419001
         6487.969       0.1422876
         6493.756        0.142646
         6499.548       0.1430285
         6505.349       0.1431341
         6511.154       0.1431977
         6516.962       0.1431296
         6522.778       0.1427254
         6528.596       0.1424028
         6534.419       0.1427477
         6540.251       0.1428303
         6546.088        0.142507
         6551.927        0.142222
         6557.771       0.1419207
         6563.624       0.1415823
         6569.478       0.1412304
         6575.341       0.1408426
         6581.206       0.1403954
          6587.08        0.139941
         6592.955       0.1394719
         6598.839       0.1389533
         6604.729       0.1383924
         6610.616       0.1378512
         6616.516       0.1373205
         6622.421       0.1367413
         6628.328       0.1362011
         6634.244       0.1356483
         6640.165       0.1351089
         6646.087       0.1346399
         6652.015       0.1341417
         6657.948       0.1336825
         6663.891        0.133267
         6669.838       0.1328261
         6675.787       0.1325019
         6681.745       0.1321546
         6687.701       0.1318356
          6693.67       0.1315403
         6699.644       0.1312714
          6705.62       0.1310326
         6711.604       0.1308184
         6717.594       0.1306726
         6723.586       0.1305266
         6729.583       0.1304622
         6735.585       0.1304116
         6741.597       0.1303493
         6747.613       0.1303276
         6753.632       0.1303188
          6759.66       0.1303315
         6765.692       0.1303594
         6771.723       0.1303962
         6777.767       0.1303808
         6783.813       0.1304336
         6789.867       0.1304437
         6795.927       0.1304258
         6801.988       0.1304462
         6808.055       0.1304525
         6814.127       0.1303787
         6820.209       0.1303187
         6826.296       0.1302842
         6832.385       0.1301991
         6838.482       0.1300585
         6844.586       0.1299282
         6850.687        0.129771
         6856.801       0.1295566
         6862.917        0.129289
         6869.042       0.1289222
         6875.173        0.128552
         6881.305       0.1281744
         6887.446       0.1278082
         6893.586       0.1274384
         6899.738       0.1270053
         6905.896       0.1265308
         6912.056       0.1259899
         6918.225       0.1254513
         6924.399       0.1249009
         6930.572       0.1243706
         6936.757       0.1238096
         6942.944       0.1232359
         6949.141       0.1225962
         6955.343       0.1220166
         6961.546       0.1214666
          6967.76       0.1207522
         6973.971       0.1201039
         6980.195       0.1195657
         6986.424       0.1190444
         6992.656       0.1185691
         6998.897       0.1180831
         7005.143       0.1175551
         7011.392       0.1170621
         7017.645       0.1165918
         7023.904       0.1161369
         7030.173       0.1156958
         7036.448       0.1152742
         7042.724       0.1149008
         7049.009       0.1145388
         7055.292       0.1142679
         7061.589       0.1139594
         7067.892       0.1136777
         7074.196       0.1134739
          7080.51       0.1132486
         7086.829       0.1130923
          7093.15       0.1129408
         7099.477       0.1127845
         7105.809       0.1127714
         7112.151       0.1126836
         7118.498       0.1125945
         7124.848       0.1126369
         7131.207       0.1126364
         7137.571       0.1126083
         7143.933       0.1126272
         7150.309       0.1126647
         7156.687       0.1126175
         7163.074       0.1125879
         7169.467       0.1125526
         7175.862       0.1124438
         7182.262        0.112342
         7188.668       0.1122172
         7195.084       0.1120683
         7201.506       0.1118926
         7207.929       0.1116715
         7214.362       0.1114022
         7220.801       0.1111512
         7227.237       0.1108414
         7233.688       0.1104408
         7240.144       0.1100341
         7246.601       0.1095862
         7253.069       0.1090708
         7259.538       0.1085601
         7266.017       0.1080156
         7272.498       0.1073704
         7278.989       0.1067172
         7285.481       0.1060897
         7291.979       0.1053935
         7298.487       0.1047115
         7305.001        0.103967
         7311.517       0.1032205
         7318.038        0.102489
         7324.569        0.101682
         7331.103       0.1008857
         7337.646       0.1001681
          7344.19      0.09937429
         7350.745      0.09859826
         7357.301      0.09787671
         7363.867      0.09720595
         7370.436      0.09652033
         7377.014      0.09585995
         7383.593      0.09533006
         7390.183      0.09474502
         7396.775      0.09422223
         7403.372      0.09371756
         7409.979      0.09324194
         7416.589      0.09283082
         7423.208      0.09240291
         7429.829      0.09199297
          7436.46      0.09157611
         7443.097      0.09122666
         7449.736      0.09086932
         7456.381      0.09056691
         7463.036      0.09026127
         7469.692      0.09005825
         7476.359      0.08990086
         7483.027      0.08974551
         7489.702      0.08968909
         7496.386      0.08968955
         7503.077      0.08971548
         7509.769      0.08977524
         7516.471      0.08987433
         7523.175      0.09003682
          7529.89      0.09017542
         7536.606      0.09030608
         7543.328      0.09039485
         7550.061      0.09050161
         7556.794      0.09057845
         7563.539      0.09065013
          7570.29      0.09073284
         7577.042       0.0908007
           7583.8      0.09084134
         7590.568      0.09089997
         7597.339       0.0908912
         7604.119      0.09090294
         7610.906      0.09086522
         7617.694      0.09083764
         7624.489      0.09068768
          7631.29      0.09056539
           7638.1      0.09040901
         7644.917      0.09026422
         7651.736      0.09002876
         7658.565      0.08968066
         7665.396      0.08940624
         7672.233      0.08900255
         7679.081      0.08859692
          7685.93      0.08813805
          7692.79       0.0875714
         7699.655      0.08704892
         7706.523      0.08645743
         7713.401      0.08577202
         7720.276      0.08508604
         7727.167      0.08440207
         7734.063      0.08367757
         7740.961      0.08292615
          7747.87      0.08223944
         7754.785      0.08145921
         7761.697      0.08075136
         7768.625       0.0800282
         7775.554      0.07927804
         7782.494      0.07855588
         7789.439      0.07782643
         7796.387      0.07702308
         7803.345      0.07623003
         7810.301      0.07544423
         7817.271      0.07457667
         7824.249      0.07373841
         7831.227      0.07287115
         7838.216      0.07197762
         7845.212      0.07125114
         7852.209      0.07046031
         7859.213      0.06971797
         7866.223      0.06903132
         7873.244       0.0684159
         7880.271      0.06781439
         7887.299      0.06727626
         7894.338      0.06676323
         7901.375      0.06629121
         7908.427      0.06578761
         7915.485      0.06535719
         7922.545       0.0649128
         7929.616      0.06453914
         7936.693      0.06421378
         7943.772      0.06392632
         7950.858      0.06373151
          7957.95      0.06355601
         7965.052      0.06348326
         7972.161      0.06347331
         7979.271      0.06345535
         7986.393      0.06344987
         7993.521      0.06345581
         8000.646      0.06295629
         8007.786      0.06257275
         8014.929       0.0621747
         8022.082      0.06155337
         8029.242      0.06109831
         8036.403      0.06055558
         8043.576      0.05997281
         8050.746      0.05953829
         8057.931      0.05916335
         8065.123      0.05867476
         8072.316      0.05819784
         8079.521      0.05768513
         8086.731      0.05680736
          8093.94      0.05561536
         8101.164      0.05414869
         8108.389      0.05220841
         8115.626      0.04993596
         8122.869      0.04762952
         8130.114      0.04502877
          8137.37      0.04228067
         8144.628      0.03960947
         8151.893      0.03711946
         8159.168      0.03468479
         8166.446      0.03256967
         8173.734      0.03072293
         8181.029      0.02901236
         8188.326      0.02727096
          8195.63       0.0254127
         8202.939      0.02349138
         8210.261      0.02151626
         8217.588      0.01951827
         8224.918      0.01770092
         8232.259      0.01597971
         8239.602      0.01440938
          8246.95      0.01295173
         8254.311       0.0116198
         8261.673      0.01040828
         8269.047     0.009327375
         8276.427     0.008327099
         8283.809     0.007485403
         8291.197     0.006753717
         8298.597     0.006098738
         8305.999     0.005566883
         8313.412     0.005120263
         8320.827     0.004719772
         8328.253     0.004369835
         8335.687     0.004025244
         8343.121     0.003697926
         8350.563     0.003398659
         8358.011     0.003130049
         8365.471     0.002881909
         8372.937     0.002640421
         8380.409     0.002419602
         8387.879     0.002223774
         8395.365     0.002071433
         8402.854     0.001909196
         8410.353     0.001785069
         8417.859     0.001654782
         8425.367     0.001547167
         8432.887     0.001436656
         8440.408      0.00131949
         8447.937     0.001220388
         8455.477      0.00113756
         8463.019     0.001060636
         8470.571     9.845507E-4
         8478.127     9.243003E-4
         8485.693     8.643083E-4
         8493.262     8.098382E-4
         8500.842     7.622478E-4
         8508.425     7.133624E-4
         8516.019     6.725577E-4
         8523.614     6.340411E-4
         8531.221     5.966320E-4
          8538.83     5.642523E-4
         8546.446     5.324967E-4
         8554.074     5.040427E-4
         8561.704     4.780033E-4
         8569.345     4.506175E-4
         8576.993     4.279249E-4
         8584.644     4.045048E-4
         8592.301     3.818192E-4
         8599.969     3.625864E-4
          8607.64     3.425629E-4
         8615.321     3.258141E-4
         8623.006     3.099847E-4
         8630.702     2.936468E-4
         8638.405     2.805970E-4
         8646.105     2.677048E-4
         8653.821     2.560192E-4
          8661.54     2.456575E-4
         8669.271     2.357600E-4
         8677.008     2.249790E-4
         8684.747     2.159534E-4
         8692.493     2.075573E-4
         8700.251     1.981136E-4
         8708.012     1.901063E-4
         8715.783     1.822341E-4
         8723.563     1.747395E-4
         8731.343     1.676698E-4
         8739.136     1.607377E-4
         8746.926     1.547283E-4
         8754.732     1.490195E-4
         8762.546     1.436955E-4
         8770.361     1.389127E-4
         8778.188     1.341956E-4
         8786.019     1.303881E-4
         8793.859     1.261830E-4
         8801.703     1.215690E-4
         8809.554     1.179246E-4
         8817.416     1.130795E-4
         8825.286     1.085844E-4
         8833.157     1.040294E-4
         8841.041     9.918988E-5
         8848.922     9.510278E-5
         8856.819     9.092264E-5
         8864.724     8.684254E-5
         8872.631     8.278606E-5
          8880.55     7.865983E-5
         8888.476     7.505296E-5
         8896.403     7.167470E-5
         8904.338     6.848487E-5
          8912.28     6.536721E-5
         8920.234     6.216070E-5
         8928.195     5.914792E-5
         8936.159     5.634649E-5
         8944.135     5.400277E-5
         8952.117     5.193325E-5
         8960.097     4.962697E-5
         8968.094     4.834273E-5
         8976.093     4.664890E-5
         8984.104     4.505441E-5
         8992.122     4.354255E-5
         9000.143     4.167132E-5
         9008.175     3.986112E-5
         9016.205     3.789011E-5
         9024.252     3.609286E-5
         9032.306     3.439651E-5
         9040.362     3.245461E-5
         9048.431     3.033804E-5
         9056.506     2.865009E-5
         9064.579     2.716745E-5
         9072.669     2.568814E-5
         9080.761     2.405778E-5
         9088.865     2.233692E-5
         9096.978     2.082044E-5
         9105.092     1.972654E-5
         9113.218     1.857041E-5
         9121.341     1.710257E-5
         9129.481     1.625006E-5
          9137.63     1.497482E-5
          9145.78     1.399085E-5
         9153.942     1.319838E-5
         9162.112     1.246374E-5
         9170.284     1.171328E-5
         9178.464     1.117809E-5
         9186.655     1.074511E-5
         9194.849     1.028464E-5
         9203.056     9.782891E-6
         9211.264     9.289796E-6
         9219.485     8.895123E-6
         9227.708     8.629312E-6
         9235.938     8.378296E-6
         9244.182     8.100972E-6
         9252.427     7.784013E-6
         9260.685     7.426869E-6
         9268.949     6.954277E-6
         9277.217     6.622455E-6
         9285.492     6.437972E-6
         9293.779     6.138155E-6
         9302.068     5.740548E-6
          9310.37     5.652982E-6
         9318.675     5.108050E-6
         9326.991     4.923995E-6
         9335.315     4.621837E-6
         9343.637     4.303612E-6
         9351.977     4.152065E-6
         9360.317     4.158985E-6
         9368.672     3.628398E-6
         9377.033     3.369401E-6
         9385.396     3.289624E-6
         9393.768     3.120292E-6
         9402.152     2.826441E-6
         9410.538     2.727845E-6
         9418.937     2.708649E-6
         9427.338     2.440146E-6
         9435.752     2.326786E-6
         9444.173     2.290974E-6
         9452.592     2.263103E-6
         9461.028     2.249469E-6
         9469.472     2.071458E-6
         9477.918     2.169083E-6
         9486.377     2.190532E-6
         9494.838     2.067804E-6
         9503.313     1.936551E-6
         9511.788     1.906873E-6
         9520.272     1.831052E-6
          9528.77     1.834178E-6
         9537.269     1.728113E-6
          9545.78     1.720590E-6
           9554.3     1.745735E-6
         9562.821     1.693363E-6
         9571.351     1.566655E-6
         9579.894     1.639415E-6
         9588.438     1.623722E-6
         9596.995     1.395302E-6
         9605.561     1.331658E-6
         9614.128     1.358888E-6
         9622.704     1.293232E-6
         9631.286     1.115064E-6
         9639.882     1.147423E-6
         9648.485     1.018889E-6
         9657.092     1.064954E-6
         9665.711     1.146762E-6
         9674.332     1.081345E-6
         9682.961     9.110264E-7
         9691.603     8.340310E-7
         9700.252     8.603325E-7
         9708.904     9.349710E-7
         9717.569     8.929518E-7
         9726.237     8.557074E-7
         9734.912     8.588596E-7
         9743.601     8.370953E-7
         9752.291     7.924073E-7
         9760.995     8.734656E-7
         9769.701     9.811831E-7
         9778.421     9.516639E-7
         9787.147     7.026774E-7
         9795.872     7.295739E-7
         9804.614     8.338274E-7
         9813.359     8.299618E-7
         9822.118     7.893873E-7
         9830.884     8.279836E-7
         9839.652     7.654003E-7
         9848.435     7.333688E-7
         9857.219     7.292479E-7
         9866.011     6.645291E-7
         9874.816     6.392394E-7
         9883.624     6.490967E-7
         9892.444     6.376791E-7
         9901.273     6.227644E-7
         9910.104     4.870492E-7
         9918.944     5.045203E-7
         9927.791     4.862150E-7
         9936.651     4.084795E-7
         9945.521     3.941214E-7
         9954.391     3.989140E-7
         9963.275     3.741074E-7
         9972.162     3.638095E-7
         9981.057     3.934087E-7
         9989.964     3.327388E-7
          9998.88     3.685461E-7
          10007.8     3.332775E-7
         10016.72     3.364287E-7
         10025.67     3.327860E-7
          10034.6     3.396376E-7
         10043.56     3.473168E-7
         10052.52     3.291478E-7
         10061.49     3.318347E-7
         10070.47     3.795813E-7
         10079.46     3.080555E-7
         10088.45     2.787991E-7
         10097.44     3.004315E-7
         10106.46     3.546387E-7
         10115.48     3.711174E-7
          10124.5     3.456424E-7
         10133.53     3.152003E-7
         10142.58     3.023418E-7
         10151.62     3.032087E-7
         10160.68     2.988407E-7
         10169.74     2.992876E-7
         10178.81     2.823157E-7
          10187.9     2.813035E-7
         10196.99     2.533439E-7
         10206.08     2.370631E-7
         10215.19     2.211461E-7
         10224.31     2.132301E-7
         10233.43     2.082212E-7
         10242.56     1.991132E-7
         10251.69     2.194921E-7
         10260.85     1.882557E-7
           10270.     1.461100E-7
         10279.16     1.586277E-7
         10288.33     1.834279E-7
         10297.51     1.798051E-7
          10306.7     1.821172E-7
         10315.89     1.796047E-7
          10325.1     1.659491E-7
          10334.3     1.540022E-7
         10343.53     1.531485E-7
         10352.76     1.566821E-7
         10361.99     1.485912E-7
         10371.25     1.214333E-7
          10380.5     1.356181E-7
         10389.76     1.196135E-7
         10399.02     1.120834E-7
          10408.3     1.127197E-7
         10417.59     1.151400E-7
         10426.89     1.135287E-7
         10436.19     1.105222E-7
         10445.49     1.052534E-7
         10454.82     9.394414E-8
         10464.15     8.358310E-8
         10473.48     8.108216E-8
         10482.82     7.959319E-8
         10492.17     7.405215E-8
         10501.54     7.225058E-8
         10510.91     7.291242E-8
         10520.29     7.021455E-8
         10529.67     7.465356E-8
         10539.07     7.160961E-8
         10548.47     6.755114E-8
         10557.88     6.278623E-8
         10567.31     6.026966E-8
         10576.73     5.725700E-8
         10586.17     5.579548E-8
         10595.61     5.758613E-8
         10605.06     5.799316E-8
         10614.53     5.319425E-8
           10624.     4.943803E-8
         10633.48     5.135671E-8
         10642.96     5.088364E-8
         10652.45     4.634379E-8
         10661.97     4.820804E-8
         10671.48     4.876847E-8
         10680.99     4.754248E-8
         10690.53     4.668406E-8
         10700.07     4.619167E-8
         10709.61     5.299880E-8
         10719.16     5.170863E-8
         10728.72     4.914180E-8
         10738.31     4.803733E-8
         10747.88     4.915710E-8
         10757.47     5.025936E-8
         10767.08     5.462232E-8
         10776.67     5.503647E-8
         10786.29     5.459155E-8
         10795.91     5.536004E-8
         10805.54     5.682741E-8
         10815.18     5.671970E-8
         10824.83     5.558065E-8
         10834.49     5.443918E-8
         10844.17     5.324519E-8
         10853.84     5.173132E-8
         10863.52     4.893961E-8
         10873.21     4.674650E-8
         10882.91     4.568259E-8
         10892.63     4.475303E-8
         10902.35     4.320956E-8
         10912.07     4.003360E-8
         10921.81     3.825170E-8
         10931.54     3.730283E-8
         10941.31     3.533803E-8
         10951.07     3.421570E-8
         10960.83     3.256683E-8
         10970.62     3.210663E-8
         10980.39     3.114462E-8
          10990.2     3.022434E-8
           11000.     2.754309E-8
