#  Table wf2f170wsys.tab  Mon 12:21:38 02-Jun-97

#      WAVELENGTH      THROUGHPUT
#       angstroms                

            1216.     3.583821E-5
          1217.34     3.692173E-5
         1218.682     3.802596E-5
         1220.026     3.915017E-5
         1221.371     4.017514E-5
         1222.717     4.121613E-5
         1224.065     4.227453E-5
         1225.414     4.334979E-5
         1226.765     4.444227E-5
         1228.117     4.555207E-5
         1229.471     4.667938E-5
         1230.826     4.808099E-5
         1232.183     4.966972E-5
         1233.542     5.128155E-5
         1234.901     5.291447E-5
         1236.262     5.457090E-5
         1237.625     5.624958E-5
         1238.989     5.795235E-5
         1240.355     5.964960E-5
         1241.722     6.128002E-5
         1243.091     6.292910E-5
         1244.461     6.459604E-5
         1245.833     6.628027E-5
         1247.207     6.798432E-5
         1248.582     6.970609E-5
         1249.957     7.144538E-5
         1251.335     7.310736E-5
         1252.715     7.478071E-5
         1254.095     7.646764E-5
         1255.478     7.817060E-5
         1256.862     7.988737E-5
         1258.247     8.161792E-5
         1259.634     8.336408E-5
         1261.023     8.507667E-5
         1262.413     8.678376E-5
         1263.805     8.850240E-5
         1265.198     9.023252E-5
         1266.592     9.197344E-5
         1267.989     9.372702E-5
         1269.387     9.549315E-5
         1270.786     9.722006E-5
         1272.187     9.891872E-5
         1273.588     1.006253E-4
         1274.992     1.023415E-4
         1276.399     1.040674E-4
         1277.805     1.058005E-4
         1279.214     1.075431E-4
         1280.624     1.092612E-4
         1282.035     1.109433E-4
         1283.449     1.126335E-4
         1284.864     1.143295E-4
          1286.28     1.160310E-4
         1287.698     1.177400E-4
         1289.117     1.194555E-4
         1290.538     1.212985E-4
         1291.961     1.233461E-4
         1293.385     1.253996E-4
         1294.811     1.274582E-4
         1296.238     1.295238E-4
         1297.668     1.315965E-4
         1299.098     1.336732E-4
          1300.53     1.357414E-4
         1301.963     1.377882E-4
         1303.398     1.398386E-4
         1304.835     1.418947E-4
         1306.274     1.439563E-4
         1307.713     1.460207E-4
         1309.155     1.480907E-4
         1310.597     1.501493E-4
         1312.042     1.521915E-4
         1313.489     1.542373E-4
         1314.937     1.562875E-4
         1316.386     1.583392E-4
         1317.837     1.603953E-4
          1319.29     1.624539E-4
         1320.744     1.650532E-4
           1322.2     1.681693E-4
         1323.657     1.712893E-4
         1325.117     1.744137E-4
         1326.578     1.775422E-4
         1328.039     1.806732E-4
         1329.503     1.838101E-4
         1330.969     1.869297E-4
         1332.436     1.900412E-4
         1333.905     1.931559E-4
         1335.376     1.962730E-4
         1336.847     1.993914E-4
         1338.321     2.025139E-4
         1339.796     2.056390E-4
         1341.273     2.087457E-4
         1342.752     2.118510E-4
         1344.232     2.149581E-4
         1345.713     2.180649E-4
         1347.197     2.211749E-4
         1348.682     2.242866E-4
         1350.169     2.276319E-4
         1351.657     2.327949E-4
         1353.146     2.379578E-4
         1354.638     2.430957E-4
         1356.131     2.481941E-4
         1357.627     2.532949E-4
         1359.123     2.583890E-4
         1360.621     2.634794E-4
         1362.121     2.685611E-4
         1363.622     2.736382E-4
         1365.126     2.787187E-4
          1366.63     2.837919E-4
         1368.137     2.888657E-4
         1369.645     2.939376E-4
         1371.155     2.990039E-4
         1372.667     3.040728E-4
          1374.18     3.091365E-4
         1375.694     3.141954E-4
         1377.211     3.192541E-4
         1378.729     3.243098E-4
         1380.249     3.302777E-4
         1381.771     3.409168E-4
         1383.294     3.515524E-4
         1384.818     3.621785E-4
         1386.345     3.728058E-4
         1387.874     3.834350E-4
         1389.403     3.940481E-4
         1390.935     4.046813E-4
         1392.468     4.153224E-4
         1394.002     4.259553E-4
          1395.54     4.365959E-4
         1397.078     4.472271E-4
         1398.618     4.578489E-4
          1400.16     4.684774E-4
         1401.703     4.791452E-4
         1403.248     4.898050E-4
         1404.795     5.004738E-4
         1406.343     5.111293E-4
         1407.894     5.217883E-4
         1409.446     5.324446E-4
         1410.999     5.475977E-4
         1412.555     5.652694E-4
         1414.112     5.829311E-4
          1415.67     6.005812E-4
         1417.231     6.182388E-4
         1418.793     6.358940E-4
         1420.357     6.535430E-4
         1421.923     6.711773E-4
         1423.491     6.888074E-4
         1425.059     7.064248E-4
          1426.63     7.240471E-4
         1428.203     7.416641E-4
         1429.777     7.592759E-4
         1431.354     7.768321E-4
         1432.932     7.943713E-4
          1434.51     8.118934E-4
         1436.092     8.294153E-4
         1437.676     8.469371E-4
          1439.26     8.644313E-4
         1440.847     8.845072E-4
         1442.435     9.068247E-4
         1444.024     9.291121E-4
         1445.617     9.514031E-4
          1447.21     9.736491E-4
         1448.805     9.958877E-4
         1450.402     0.001018047
         1452.001     0.001039996
         1453.602     0.001061934
         1455.205     0.001083829
         1456.808     0.001105678
         1458.414     0.001127503
         1460.022     0.001149291
         1461.631     0.001170723
         1463.243     0.001192104
         1464.856     0.001213436
          1466.47     0.001234707
         1468.086     0.001255939
         1469.706      0.00127713
         1471.325     0.001297865
         1472.947     0.001318456
         1474.571     0.001338978
         1476.196      0.00135942
         1477.824     0.001379811
         1479.453     0.001400119
         1481.083     0.001419945
         1482.716     0.001439492
          1484.35     0.001458943
         1485.987       0.0014783
         1487.625     0.001498682
         1489.264     0.001520823
         1490.906     0.001542528
         1492.549     0.001563844
         1494.195     0.001585103
         1495.842     0.001606306
         1497.491     0.001627449
         1499.142      0.00164853
         1500.794     0.001664823
         1502.449     0.001675931
         1504.105     0.001686921
         1505.763     0.001697808
         1507.423     0.001708585
         1509.084     0.001719245
         1510.748     0.001729499
         1512.414     0.001739249
          1514.08     0.001748865
         1515.749     0.001758355
         1517.419     0.001767708
         1519.093     0.001776937
         1520.768      0.00178583
         1522.444     0.001794348
         1524.122     0.001802717
         1525.802     0.001810942
         1527.484     0.001819018
         1529.168     0.001826944
         1530.854     0.001831567
          1532.54     0.001832992
          1534.23     0.001834301
         1535.921     0.001835492
         1537.615     0.001836565
          1539.31     0.001837518
         1541.006     0.001838402
         1542.705     0.001839202
         1544.405      0.00183988
         1546.109     0.001837445
         1547.812     0.001833303
         1549.518     0.001829058
         1551.227     0.001824957
         1552.936     0.001820856
         1554.648     0.001816656
         1556.363     0.001812357
         1558.078     0.001807963
         1559.795      0.00180347
         1561.515     0.001793108
         1563.235     0.001781959
         1564.958       0.0017708
         1566.685      0.00175963
         1568.411     0.001748465
          1570.14     0.001737356
         1571.871     0.001726997
         1573.603     0.001716637
         1575.338     0.001706265
         1577.075     0.001695882
         1578.813     0.001685503
         1580.553     0.001675454
         1582.295     0.001666136
         1584.039     0.001656806
         1585.785     0.001647468
         1587.534     0.001638124
         1589.284     0.001628773
         1591.036     0.001619722
          1592.79     0.001610881
         1594.545     0.001602044
         1596.303     0.001593203
         1598.062      0.00158436
         1599.824     0.001575517
         1601.588     0.001567951
         1603.353     0.001560528
          1605.12     0.001553099
          1606.89     0.001545667
         1608.661     0.001538232
         1610.434     0.001531159
          1612.21     0.001525204
         1613.986     0.001519248
         1615.765     0.001513286
         1617.548     0.001507316
          1619.33     0.001501348
         1621.115     0.001496747
         1622.902     0.001492963
          1624.69     0.001489174
         1626.482     0.001485373
         1628.275     0.001481567
         1630.069     0.001477811
         1631.867     0.001475537
         1633.665     0.001473258
         1635.466      0.00147097
         1637.269     0.001468675
         1639.074     0.001466374
          1640.88     0.001464851
         1642.689     0.001464147
           1644.5     0.001463439
         1646.313     0.001462727
         1648.128     0.001462096
         1649.944     0.001462592
         1651.763     0.001464033
         1653.585     0.001465503
         1655.407     0.001466971
         1657.232     0.001468439
         1659.058     0.001469906
         1660.888     0.001472115
         1662.719     0.001475113
         1664.552     0.001478118
         1666.386     0.001481127
         1668.223     0.001484142
         1670.062      0.00148721
         1671.903     0.001491606
         1673.746     0.001496013
          1675.59     0.001500432
         1677.437     0.001504866
         1679.287     0.001509312
         1681.139     0.001513421
         1682.991     0.001517309
         1684.847     0.001521205
         1686.704     0.001525105
         1688.563     0.001529008
         1690.425     0.001533157
         1692.287     0.001538111
         1694.153     0.001543077
         1696.021     0.001548052
          1697.89     0.001553033
         1699.762     0.001558029
         1701.636     0.001563813
         1703.512     0.001569724
         1705.389     0.001575645
         1707.269     0.001581582
         1709.151     0.001587533
         1711.035     0.001594138
         1712.922     0.001601288
         1714.809     0.001608458
         1716.699     0.001615652
         1718.592     0.001622868
         1720.485     0.001630261
         1722.383     0.001638147
         1724.281      0.00164605
         1726.182     0.001653983
         1728.086     0.001661945
          1729.99     0.001669926
         1731.897      0.00167845
         1733.806     0.001687006
         1735.718     0.001695591
          1737.63     0.001704201
         1739.546     0.001712843
         1741.463     0.001721484
         1743.383     0.001730141
         1745.305     0.001738824
         1747.228     0.001747528
         1749.154     0.001756261
         1751.084     0.001763477
         1753.013     0.001769485
         1754.946     0.001775498
          1756.88     0.001781512
         1758.817     0.001787527
         1760.756     0.001793634
         1762.697     0.001799882
         1764.639     0.001806129
         1766.585     0.001812381
         1768.532     0.001818634
         1770.482     0.001824467
         1772.434     0.001829005
         1774.387     0.001833524
         1776.343     0.001838021
         1778.301     0.001842501
         1780.262     0.001846991
         1782.224     0.001851638
         1784.189     0.001856266
         1786.156     0.001860874
         1788.124     0.001865459
         1790.096     0.001870038
         1792.068     0.001874806
         1794.044     0.001879553
         1796.022      0.00188428
         1798.001     0.001888982
         1799.984     0.001893666
         1801.968     0.001895405
         1803.954     0.001897063
         1805.942     0.001898661
         1807.933     0.001900201
         1809.926     0.001901682
         1811.922     0.001903303
         1813.919     0.001904871
         1815.918     0.001906376
          1817.92      0.00190782
         1819.925     0.001909202
          1821.93     0.001910705
         1823.938     0.001912153
         1825.948     0.001913535
         1827.962     0.001914853
         1829.976     0.001916104
         1831.995     0.001916323
         1834.013      0.00191645
         1836.035     0.001916494
         1838.059     0.001916457
         1840.084     0.001916343
         1842.113     0.001916319
         1844.144      0.00191621
         1846.177     0.001916015
         1848.212     0.001915733
         1850.248     0.001915386
         1852.288     0.001915111
          1854.33     0.001914746
         1856.375     0.001914291
         1858.421     0.001913744
         1860.469     0.001912567
          1862.52     0.001909463
         1864.573     0.001906233
         1866.628     0.001902878
         1868.686     0.001899396
         1870.746     0.001895849
         1872.808      0.00189228
         1874.872     0.001888582
         1876.939     0.001884752
         1879.008     0.001880782
         1881.079     0.001875212
         1883.153     0.001869592
         1885.229     0.001863839
         1887.307     0.001857956
         1889.387     0.001851936
         1891.471     0.001842972
         1893.555     0.001832676
         1895.643     0.001822194
         1897.732     0.001811531
         1899.823     0.001800692
         1901.919     0.001789809
         1904.014     0.001778765
         1906.113     0.001767528
         1908.215     0.001756103
         1910.317     0.001744516
         1912.424     0.001732848
         1914.532     0.001720998
         1916.643     0.001708943
         1918.755     0.001696704
          1920.87     0.001685222
         1922.988     0.001674931
         1925.107     0.001664468
          1927.23     0.001653817
         1929.354     0.001642999
         1931.481     0.001632082
          1933.61      0.00162102
          1935.74     0.001609781
         1937.875     0.001598347
         1940.011      0.00158674
         1942.149     0.001575029
          1944.29      0.00156313
         1946.434     0.001551043
          1948.58     0.001538766
         1950.728     0.001525214
         1952.878      0.00150933
          1955.03     0.001493225
         1957.185     0.001476882
         1959.343     0.001460308
         1961.503     0.001443544
         1963.665     0.001426564
         1965.829     0.001409357
         1967.996     0.001391906
         1970.167     0.001374215
         1972.339     0.001356365
         1974.512     0.001338282
         1976.689     0.001319948
         1978.868     0.001301371
         1981.049     0.001285591
         1983.233     0.001272894
         1985.418     0.001260021
         1987.607     0.001246958
         1989.798     0.001233712
         1991.992     0.001220317
         1994.188     0.001206737
         1996.386     0.001192971
         1998.586     0.001179025
         2000.789     0.001165271
         2002.996     0.001151999
         2005.203     0.001138528
         2007.414     0.001124835
         2009.627     0.001110925
         2011.841     0.001096035
          2014.06     0.001080744
         2016.279     0.001065237
         2018.502     0.001049487
         2020.727     0.001033498
         2022.955     0.001017265
         2025.185     0.001000794
         2027.417     9.840825E-4
         2029.652     9.671323E-4
         2031.889     9.499391E-4
         2034.129     9.324939E-4
         2036.371     9.148029E-4
         2038.616     8.968671E-4
         2040.864     8.791339E-4
         2043.112     8.618907E-4
         2045.365     8.444041E-4
         2047.621     8.266711E-4
         2049.877     8.087190E-4
         2052.137     7.904836E-4
         2054.399     7.720095E-4
         2056.664     7.532951E-4
         2058.931     7.343371E-4
         2061.201     7.151107E-4
         2063.472     6.956277E-4
         2065.747     6.758936E-4
         2068.024     6.559130E-4
         2070.304     6.356812E-4
         2072.586     6.151645E-4
         2074.871     5.944048E-4
         2077.157     5.734049E-4
         2079.447     5.521483E-4
          2081.74     5.305937E-4
         2084.034     5.087989E-4
         2086.332     4.867468E-4
         2088.632     4.644432E-4
         2090.933     4.486216E-4
          2093.24     4.425235E-4
         2095.546     4.363544E-4
         2097.856     4.301041E-4
         2100.169     4.237350E-4
         2102.483     4.167835E-4
         2104.802     4.097415E-4
         2107.121     4.026240E-4
         2109.444     3.954188E-4
         2111.769     3.897431E-4
         2114.097     3.845101E-4
         2116.428     3.792154E-4
          2118.76     3.738615E-4
         2121.097     3.681950E-4
         2123.434     3.621932E-4
         2125.775     3.561235E-4
         2128.118     3.499880E-4
         2130.463     3.440946E-4
         2132.813     3.393772E-4
         2135.163     3.346147E-4
         2137.518     3.297972E-4
         2139.875     3.250306E-4
         2142.231     3.199902E-4
         2144.594     3.148743E-4
         2146.958     3.097064E-4
         2149.325     3.044842E-4
         2151.693     3.001132E-4
         2154.065     2.960578E-4
          2156.44     2.919614E-4
         2158.817     2.878231E-4
         2161.197     2.835286E-4
         2163.578     2.790832E-4
         2165.964     2.745935E-4
         2168.353     2.700603E-4
         2170.743     2.658286E-4
         2173.135     2.623210E-4
         2175.529     2.587827E-4
         2177.929     2.552100E-4
         2180.329     2.515497E-4
         2182.733     2.474716E-4
         2185.138     2.433660E-4
         2187.547     2.392264E-4
         2189.959     2.350550E-4
         2192.372     2.319074E-4
         2194.789     2.287546E-4
         2197.208     2.255792E-4
         2199.632     2.223800E-4
         2202.056     2.202940E-4
         2204.482     2.183419E-4
         2206.912     2.163152E-4
         2209.345     2.142145E-4
         2211.782     2.125743E-4
         2214.219     2.110717E-4
          2216.66     2.095089E-4
         2219.104     2.078861E-4
         2221.549     2.060945E-4
         2223.998     2.041768E-4
         2226.449     2.021966E-4
         2228.904     2.001532E-4
         2231.361     1.983921E-4
          2233.82     1.968562E-4
         2236.284     1.952674E-4
         2238.748     1.936286E-4
         2241.217     1.919120E-4
         2243.687     1.901206E-4
         2246.159     1.882773E-4
         2248.636     1.863798E-4
         2251.114     1.846811E-4
         2253.597     1.832416E-4
          2256.08     1.817610E-4
         2258.567     1.802370E-4
         2261.057     1.785979E-4
         2263.548     1.768180E-4
         2266.045     1.749912E-4
         2268.542     1.731211E-4
         2271.042     1.714560E-4
         2273.546     1.701047E-4
         2276.051     1.687186E-4
         2278.562     1.672954E-4
         2281.072     1.658013E-4
         2283.588     1.642205E-4
         2286.104     1.626044E-4
         2288.623     1.609512E-4
         2291.147     1.594549E-4
         2293.672     1.581624E-4
         2296.202     1.568433E-4
         2298.732     1.555560E-4
         2301.266     1.541371E-4
         2303.803     1.525852E-4
         2306.342     1.509989E-4
         2308.885     1.493758E-4
         2311.431     1.480601E-4
         2313.979     1.469827E-4
          2316.53     1.458786E-4
         2319.082     1.447484E-4
         2321.639     1.434909E-4
         2324.198     1.421490E-4
          2326.76     1.407782E-4
         2329.325     1.393782E-4
         2331.892     1.382616E-4
         2334.463     1.372319E-4
         2337.038     1.361782E-4
         2339.613     1.351021E-4
         2342.193     1.338500E-4
         2344.774     1.325469E-4
         2347.357     1.312180E-4
         2349.947     1.298618E-4
         2352.536     1.288692E-4
         2355.131     1.278632E-4
         2357.726     1.268375E-4
         2360.326     1.257768E-4
         2362.927     1.246047E-4
         2365.531     1.234106E-4
          2368.14     1.221933E-4
         2370.749     1.210612E-4
         2373.364     1.201728E-4
         2375.979     1.192680E-4
         2378.598     1.183452E-4
          2381.22     1.173471E-4
         2383.844     1.162647E-4
         2386.473     1.151624E-4
         2389.103     1.140424E-4
         2391.737     1.130895E-4
         2394.373     1.122172E-4
         2397.012     1.113298E-4
         2399.656     1.104263E-4
           2402.3     1.094309E-4
         2404.949     1.084069E-4
           2407.6     1.073673E-4
         2410.252     1.063398E-4
          2412.91     1.055590E-4
          2415.57     1.047657E-4
         2418.233     1.039595E-4
         2420.898     1.031017E-4
         2423.567     1.021531E-4
         2426.238     1.011906E-4
         2428.913     1.002139E-4
         2431.591     9.937300E-5
         2434.271     9.862266E-5
         2436.954     9.786140E-5
         2439.641     9.708798E-5
         2442.331     9.628198E-5
         2445.022     9.546158E-5
         2447.718     9.462912E-5
         2450.416     9.380723E-5
         2453.117     9.309632E-5
         2455.822     9.237522E-5
         2458.528     9.164427E-5
         2461.239     9.087853E-5
         2463.951     9.007464E-5
         2466.669     8.925926E-5
         2469.387     8.843390E-5
         2472.108     8.776176E-5
         2474.834     8.712781E-5
         2477.561     8.648571E-5
         2480.294     8.582755E-5
         2483.027     8.510617E-5
         2485.764     8.437499E-5
         2488.504     8.363435E-5
         2491.246     8.297679E-5
         2493.994     8.242108E-5
         2496.742     8.185834E-5
         2499.494     8.128755E-5
          2502.25     8.063296E-5
         2505.007     7.995311E-5
          2507.77     7.926392E-5
         2510.533     7.859947E-5
         2513.302     7.806371E-5
         2516.072     7.752122E-5
         2518.844     7.697148E-5
         2521.622     7.637674E-5
         2524.401     7.574835E-5
         2527.185     7.511137E-5
         2529.969     7.446697E-5
         2532.759     7.400084E-5
         2535.551     7.353037E-5
         2538.344     7.297520E-5
         2541.144     7.230348E-5
         2543.946     7.158909E-5
          2546.75     7.087005E-5
         2549.558     7.014633E-5
         2552.367     6.953394E-5
          2555.18     6.893872E-5
         2557.997     6.833943E-5
         2560.817     6.772370E-5
         2563.639     6.707383E-5
         2566.465     6.641931E-5
         2569.294     6.576051E-5
         2572.128     6.516850E-5
         2574.962     6.459676E-5
           2577.8     6.402118E-5
         2580.643     6.343677E-5
         2583.486     6.283417E-5
         2586.336     6.222689E-5
         2589.186     6.161624E-5
         2592.039     6.110413E-5
         2594.897     6.062909E-5
         2597.757     6.015109E-5
         2600.622     5.965984E-5
         2603.487     5.913171E-5
         2606.357     5.859963E-5
         2609.231     5.806387E-5
         2612.106     5.759757E-5
         2614.985     5.715432E-5
          2617.87     5.670756E-5
         2620.754     5.624949E-5
         2623.643     5.576374E-5
         2626.536     5.527450E-5
         2629.431     5.478179E-5
         2632.328     5.433764E-5
         2635.232     5.390244E-5
         2638.135     5.346445E-5
         2641.045     5.301485E-5
         2643.955     5.254828E-5
          2646.87     5.207806E-5
         2649.788     5.160452E-5
         2652.708     5.123428E-5
         2655.633     5.086914E-5
          2658.56     5.050151E-5
          2661.49     5.011942E-5
         2664.424     4.972324E-5
          2667.36     4.932428E-5
         2670.302     4.892859E-5
         2673.244     4.858878E-5
         2676.193     4.824591E-5
         2679.142     4.790072E-5
         2682.094     4.755456E-5
         2685.052     4.720606E-5
         2688.012     4.685506E-5
         2690.975     4.651029E-5
          2693.94     4.618129E-5
          2696.91     4.584957E-5
         2699.883     4.551531E-5
         2702.858     4.523936E-5
         2705.839     4.496198E-5
         2708.822     4.468110E-5
         2711.807     4.445340E-5
         2714.796     4.425954E-5
         2717.789     4.406276E-5
         2720.785     4.384222E-5
         2723.785     4.355957E-5
         2726.788     4.327328E-5
         2729.792     4.298352E-5
         2732.802     4.277971E-5
         2735.814     4.257969E-5
          2738.83     4.237682E-5
         2741.849     4.214593E-5
         2744.872     4.189594E-5
         2747.898     4.164272E-5
         2750.926     4.137591E-5
         2753.958     4.108365E-5
         2756.994     4.079057E-5
         2760.034     4.049632E-5
         2763.076     4.017254E-5
         2766.121     3.984802E-5
         2769.172     3.952223E-5
         2772.223     3.922686E-5
         2775.281     3.894194E-5
         2778.339     3.865651E-5
           2781.4     3.835014E-5
         2784.468     3.801871E-5
         2787.536     3.768670E-5
          2790.61     3.736761E-5
         2793.685     3.710511E-5
         2796.765     3.684178E-5
         2799.848     3.657777E-5
         2802.933     3.625707E-5
         2806.025     3.593233E-5
         2809.117     3.560707E-5
         2812.213     3.532189E-5
         2815.314     3.505238E-5
         2818.417     3.478219E-5
         2821.524     3.451802E-5
         2824.633     3.426033E-5
         2827.749     3.400173E-5
         2830.865     3.373849E-5
         2833.985     3.346333E-5
         2837.109     3.318753E-5
         2840.236     3.291330E-5
         2843.368     3.266464E-5
         2846.501     3.241561E-5
         2849.641     3.216575E-5
         2852.781     3.190190E-5
         2855.924     3.163568E-5
         2859.074     3.136856E-5
         2862.226     3.112172E-5
         2865.381     3.088295E-5
          2868.54     3.064363E-5
         2871.701     3.041965E-5
         2874.866     3.020861E-5
         2878.036     2.999710E-5
         2881.208     2.976187E-5
         2884.385     2.948828E-5
         2887.563     2.921422E-5
         2890.748     2.896420E-5
         2893.935     2.879503E-5
         2897.123     2.862559E-5
         2900.317     2.844188E-5
         2903.515     2.813297E-5
         2906.715     2.782456E-5
          2909.92     2.751662E-5
         2913.126     2.725337E-5
         2916.338     2.699150E-5
         2919.552     2.673006E-5
         2922.773     2.646857E-5
         2925.993     2.620770E-5
         2929.217     2.594723E-5
         2932.448     2.568652E-5
         2935.679     2.542633E-5
         2938.916     2.516646E-5
         2942.155     2.492727E-5
         2945.399     2.469865E-5
         2948.646     2.447038E-5
         2951.895     2.424218E-5
         2955.151     2.401383E-5
         2958.407     2.378610E-5
         2961.668     2.354322E-5
         2964.933     2.328605E-5
           2968.2     2.302947E-5
         2971.474     2.278657E-5
         2974.748     2.256074E-5
         2978.027     2.233522E-5
          2981.31     2.210398E-5
         2984.595     2.186407E-5
         2987.887     2.162442E-5
         2991.179     2.139620E-5
         2994.477     2.118752E-5
         2997.778     2.097924E-5
         3001.083     2.076637E-5
         3004.391     2.054373E-5
         3007.702     2.032165E-5
         3011.019     2.012272E-5
         3014.337     1.997597E-5
         3017.658     1.982947E-5
         3020.987     1.966092E-5
         3024.317     1.944036E-5
         3027.651     1.922028E-5
         3030.987     1.900072E-5
         3034.328     1.878141E-5
         3037.673     1.856259E-5
         3041.022     1.836229E-5
         3044.375     1.820343E-5
         3047.731     1.804490E-5
         3051.089     1.787714E-5
         3054.454     1.768955E-5
          3057.82     1.750256E-5
         3061.191     1.732627E-5
         3064.565     1.716930E-5
         3067.944     1.701267E-5
         3071.326     1.685636E-5
          3074.71     1.670046E-5
           3078.1     1.654482E-5
         3081.495     1.637010E-5
          3084.89     1.617144E-5
         3088.292     1.597309E-5
         3091.696     1.579710E-5
         3095.102     1.564336E-5
         3098.516     1.548980E-5
          3101.93     1.536483E-5
         3105.351     1.526102E-5
         3108.773     1.515676E-5
           3112.2     1.508004E-5
         3115.631     1.501863E-5
         3119.064     1.495690E-5
         3122.504     1.486256E-5
         3125.945     1.475575E-5
         3129.391     1.464832E-5
         3132.841     1.455245E-5
         3136.294     1.445868E-5
         3139.752     1.436440E-5
         3143.211     1.428373E-5
         3146.678     1.420364E-5
         3150.145     1.412319E-5
         3153.618     1.404211E-5
         3157.095     1.396059E-5
         3160.573     1.387618E-5
         3164.059     1.377849E-5
         3167.546     1.368038E-5
         3171.039     1.359075E-5
         3174.533     1.352223E-5
         3178.031     1.345334E-5
         3181.536     1.337728E-5
         3185.044     1.329223E-5
         3188.555     1.320672E-5
         3192.068     1.313909E-5
         3195.587     1.308388E-5
          3199.11     1.302835E-5
         3202.637     1.294897E-5
         3206.167     1.286120E-5
           3209.7     1.277300E-5
         3213.239     1.272804E-5
         3216.781     1.268687E-5
         3220.327     1.263955E-5
         3223.877     1.253370E-5
         3227.431     1.242729E-5
         3230.989     1.233825E-5
         3234.549     1.229542E-5
         3238.115     1.225230E-5
         3241.685     1.219368E-5
         3245.259     1.211760E-5
         3248.836     1.204112E-5
         3252.418     1.196414E-5
         3256.003     1.188671E-5
         3259.591     1.180890E-5
         3263.186     1.175992E-5
         3266.781     1.171448E-5
         3270.383     1.166699E-5
         3273.988     1.160448E-5
         3277.596     1.154166E-5
         3281.209     1.147841E-5
         3284.826     1.141475E-5
         3288.449     1.135070E-5
         3292.073     1.128646E-5
           3295.7     1.122192E-5
         3299.335     1.115695E-5
          3302.97     1.109171E-5
         3306.614     1.102605E-5
         3310.257     1.096252E-5
         3313.906     1.093062E-5
         3317.559     1.089852E-5
         3321.215     1.084899E-5
         3324.878     1.076436E-5
         3328.542     1.067937E-5
         3332.211     1.063604E-5
         3335.885     1.062036E-5
          3339.56     1.060456E-5
         3343.244     1.054209E-5
         3346.927     1.047302E-5
         3350.619     1.040945E-5
         3354.311     1.037517E-5
         3358.007     1.034068E-5
          3361.71     1.028944E-5
         3365.415     1.021869E-5
         3369.126     1.014748E-5
         3372.839     1.007606E-5
         3376.557     1.000425E-5
         3380.279     9.933410E-6
         3384.004     9.879071E-6
         3387.736     9.824363E-6
         3391.469     9.798246E-6
         3395.208     9.816539E-6
         3398.953     9.834879E-6
         3402.698     9.786807E-6
         3406.449     9.712557E-6
         3410.204     9.639912E-6
         3413.964     9.602129E-6
         3417.727     9.564114E-6
         3421.493     9.518517E-6
         3425.265     9.461378E-6
         3429.043     9.403881E-6
         3432.821     9.360330E-6
         3436.606     9.321332E-6
         3440.394     9.282095E-6
         3444.185     9.242682E-6
         3447.984     9.202981E-6
         3451.783     9.154139E-6
         3455.588     9.094847E-6
         3459.398     9.035208E-6
         3463.211     8.991569E-6
         3467.029     8.950733E-6
          3470.85     8.909701E-6
         3474.678     8.868498E-6
         3478.506     8.827078E-6
         3482.339     8.785496E-6
          3486.18     8.743667E-6
         3490.023     8.701722E-6
         3493.871     8.679292E-6
          3497.72     8.656712E-6
         3501.576     8.617684E-6
         3505.437     8.554817E-6
         3509.301     8.491571E-6
          3513.17     8.444596E-6
         3517.041     8.401033E-6
         3520.918     8.361983E-6
         3524.799     8.338250E-6
         3528.685     8.314344E-6
         3532.575     8.276873E-6
         3536.468     8.232319E-6
         3540.368     8.189374E-6
         3544.269     8.164859E-6
         3548.176     8.140153E-6
         3552.088     8.104237E-6
         3556.004     8.058420E-6
         3559.924     8.012311E-6
         3563.846     7.966066E-6
         3567.777     7.919483E-6
         3571.708     7.872662E-6
         3575.644     7.825562E-6
         3579.588     7.778117E-6
         3583.534     7.749625E-6
         3587.484     7.723185E-6
         3591.439     7.696563E-6
         3595.396     7.669782E-6
          3599.36     7.642794E-6
         3603.328     7.615712E-6
         3607.301     7.588455E-6
         3611.277     7.560984E-6
         3615.256     7.533285E-6
         3619.242     7.505377E-6
         3623.234     7.477426E-6
         3627.226     7.449343E-6
         3631.223     7.414253E-6
         3635.228     7.363385E-6
         3639.237     7.312197E-6
         3643.247     7.278878E-6
         3647.261     7.249609E-6
         3651.284     7.220138E-6
         3655.307     7.190570E-6
         3659.335     7.160792E-6
         3663.371     7.130784E-6
         3667.408     7.100597E-6
         3671.453     7.070176E-6
         3675.498     7.039586E-6
         3679.552     7.008752E-6
         3683.606     6.977739E-6
         3687.665     6.946513E-6
         3691.732     6.915046E-6
           3695.8     6.883401E-6
         3699.876     6.851504E-6
         3703.953     6.842237E-6
         3708.039     6.833575E-6
         3712.124     6.812529E-6
         3716.215     6.779923E-6
         3720.313     6.747061E-6
         3724.413     6.714014E-6
         3728.521     6.680707E-6
         3732.629     6.647208E-6
         3736.746     6.613448E-6
         3740.863     6.584572E-6
         3744.985     6.574708E-6
         3749.116     6.564736E-6
         3753.247     6.535450E-6
         3757.386     6.500668E-6
         3761.526     6.474738E-6
         3765.675     6.464158E-6
         3769.824     6.453489E-6
         3773.978     6.418977E-6
         3778.141     6.383142E-6
         3782.304     6.347059E-6
         3786.473     6.310680E-6
         3790.648     6.277956E-6
         3794.824     6.266323E-6
          3799.01     6.254571E-6
         3803.196     6.223357E-6
         3807.389     6.185886E-6
         3811.586     6.157824E-6
          3815.79     6.145507E-6
         3819.994     6.133092E-6
         3824.203     6.120483E-6
         3828.419     6.107758E-6
          3832.64     6.078628E-6
         3836.865     6.039505E-6
         3841.095     6.006918E-6
         3845.331     5.993596E-6
         3849.568     5.980175E-6
          3853.81     5.966566E-6
         3858.058     5.952829E-6
         3862.312     5.924445E-6
         3866.572     5.883600E-6
         3870.832     5.847772E-6
         3875.099     5.833346E-6
         3879.369     5.818809E-6
         3883.646     5.804079E-6
         3887.927     5.789219E-6
         3892.213     5.774233E-6
         3896.504     5.759120E-6
           3900.8     5.738763E-6
           3905.1     5.695792E-6
         3909.403     5.652572E-6
         3913.712     5.632851E-6
         3918.027     5.616831E-6
         3922.346     5.600640E-6
          3926.67     5.584287E-6
         3930.999     5.567807E-6
         3935.333     5.551191E-6
         3939.669     5.534465E-6
         3944.012     5.517453E-6
          3948.36     5.500306E-6
         3952.712     5.465260E-6
          3957.07     5.419216E-6
         3961.432     5.391677E-6
         3965.799     5.402506E-6
         3970.169     5.411119E-6
         3974.546     5.364066E-6
         3978.927     5.316738E-6
         3983.314     5.313078E-6
         3987.705     5.323634E-6
         3992.101     5.306115E-6
           3996.5     5.257720E-6
         4000.906     5.218836E-6
         4005.316     5.217787E-6
         4009.732     5.216731E-6
         4014.152     5.187813E-6
         4018.577     5.157071E-6
         4023.008     5.126235E-6
          4027.44     5.095359E-6
          4031.88     5.064404E-6
         4036.325     5.033372E-6
         4040.775     5.002302E-6
         4045.229     4.971131E-6
         4049.689     4.939940E-6
         4054.153     4.908641E-6
          4058.62     4.877331E-6
         4063.094     4.845924E-6
         4067.574     4.814472E-6
         4072.058     4.782959E-6
         4076.547     4.751380E-6
         4081.041     4.719764E-6
         4085.538     4.688080E-6
         4090.042     4.656366E-6
         4094.548     4.624635E-6
         4099.064     4.592853E-6
         4103.583     4.584765E-6
         4108.107     4.582861E-6
         4112.636     4.563442E-6
         4117.165     4.531461E-6
         4121.706     4.499367E-6
          4126.25     4.467187E-6
         4130.799     4.434992E-6
         4135.353     4.402772E-6
         4139.911     4.370545E-6
         4144.473     4.367905E-6
          4149.04     4.365850E-6
         4153.616     4.339769E-6
         4158.195     4.307313E-6
         4162.779     4.274843E-6
         4167.366     4.242376E-6
         4171.962     4.222784E-6
         4176.559     4.220534E-6
         4181.163     4.210609E-6
         4185.772     4.177977E-6
         4190.385     4.145348E-6
         4195.006     4.112621E-6
         4199.629     4.079916E-6
         4204.261     4.053484E-6
         4208.894     4.027532E-6
         4213.531     4.024776E-6
         4218.178     4.029323E-6
         4222.826     4.015141E-6
         4227.484     3.988773E-6
         4232.142     3.962338E-6
          4236.81     3.935772E-6
         4241.478     3.918934E-6
         4246.151     3.923226E-6
         4250.835     3.921968E-6
         4255.519     3.895047E-6
         4260.212     3.867996E-6
         4264.907     3.840811E-6
         4269.606     3.813533E-6
         4274.315     3.815007E-6
         4279.025     3.819117E-6
         4283.744     3.798072E-6
         4288.464     3.770408E-6
         4293.194     3.764086E-6
         4297.925     3.768073E-6
         4302.661     3.754112E-6
         4307.406     3.726038E-6
         4312.152     3.697892E-6
         4316.909     3.669615E-6
         4321.665     3.652533E-6
         4326.432     3.656343E-6
         4331.199     3.652029E-6
         4335.971     3.623448E-6
         4340.753     3.599850E-6
         4345.537     3.603541E-6
          4350.33     3.604993E-6
         4355.123     3.575978E-6
         4359.926     3.546838E-6
          4364.73     3.549963E-6
          4369.54     3.553597E-6
         4374.359     3.527369E-6
         4379.179     3.497922E-6
         4384.009     3.495825E-6
          4388.84     3.499350E-6
          4393.68     3.477561E-6
         4398.521     3.447726E-6
         4403.368     3.441005E-6
         4408.225     3.444472E-6
         4413.082     3.426651E-6
          4417.95     3.396449E-6
         4422.817     3.385648E-6
         4427.696     3.389007E-6
         4432.574     3.374515E-6
         4437.458     3.343958E-6
         4442.353     3.329614E-6
         4447.248     3.332907E-6
         4452.153     3.321221E-6
         4457.059     3.290325E-6
          4461.97     3.273045E-6
         4466.891     3.276235E-6
         4471.813     3.266777E-6
         4476.745     3.235508E-6
         4481.678     3.215902E-6
         4486.618     3.219033E-6
         4491.564     3.211208E-6
         4496.514     3.179628E-6
         4501.473     3.162038E-6
         4506.433     3.177850E-6
         4511.401     3.193680E-6
         4516.375     3.209498E-6
         4521.355     3.215640E-6
         4526.337     3.195605E-6
         4531.325     3.184777E-6
          4536.32     3.200325E-6
         4541.321     3.206236E-6
         4546.328     3.185008E-6
         4551.339     3.173303E-6
         4556.357     3.188623E-6
          4561.38     3.203952E-6
         4566.406     3.219258E-6
          4571.44     3.223762E-6
         4576.479     3.200975E-6
         4581.527     3.189391E-6
         4586.575     3.204419E-6
         4591.632     3.206968E-6
         4596.691     3.183016E-6
         4601.758     3.172270E-6
         4606.832     3.187027E-6
          4611.91     3.201804E-6
         4616.994     3.216599E-6
         4622.084     3.214970E-6
          4627.18     3.189336E-6
         4632.278     3.181462E-6
         4637.385     3.195974E-6
         4642.497     3.210505E-6
         4647.615     3.225054E-6
         4652.738     3.217445E-6
         4657.868     3.190201E-6
         4663.002     3.187065E-6
         4668.141     3.201270E-6
         4673.287     3.215531E-6
         4678.438     3.229829E-6
         4683.596     3.214232E-6
         4688.759     3.185297E-6
         4693.928     3.188879E-6
           4699.1     3.202826E-6
         4704.281     3.216841E-6
         4709.467     3.230882E-6
         4714.658     3.205119E-6
         4719.856     3.174401E-6
         4725.059     3.186889E-6
         4730.268     3.200630E-6
          4735.48     3.214335E-6
         4740.701     3.221961E-6
         4745.927     3.189943E-6
         4751.159     3.167686E-6
         4756.396     3.181096E-6
          4761.64     3.194538E-6
         4766.889     3.208034E-6
         4772.142     3.202377E-6
         4777.402     3.168554E-6
         4782.669     3.158360E-6
         4787.941     3.171500E-6
          4793.22     3.184690E-6
         4798.504     3.197915E-6
         4803.791     3.211149E-6
         4809.087     3.224410E-6
         4814.389     3.197049E-6
         4819.696     3.160832E-6
         4825.009     3.170937E-6
         4830.328     3.183886E-6
         4835.653     3.196851E-6
         4840.981     3.209827E-6
         4846.318     3.222830E-6
         4851.661     3.220027E-6
         4857.009     3.181835E-6
         4862.364     3.165897E-6
         4867.724     3.178584E-6
          4873.09     3.191285E-6
         4878.457     3.203989E-6
         4883.838     3.216730E-6
         4889.222     3.229482E-6
         4894.612     3.196939E-6
         4900.008     3.156398E-6
         4905.409     3.168861E-6
         4910.814     3.181330E-6
         4916.228     3.193776E-6
         4921.648     3.206240E-6
         4927.074     3.218719E-6
         4932.505     3.205916E-6
          4937.94     3.163233E-6
         4943.386     3.154527E-6
         4948.833     3.166727E-6
         4954.289     3.178949E-6
          4959.75     3.191186E-6
         4965.216     3.203382E-6
         4970.692     3.208435E-6
         4976.169     3.163658E-6
         4981.658     3.135681E-6
         4987.146     3.147595E-6
         4992.642     3.159526E-6
         4998.148     3.171486E-6
         5003.656     3.185210E-6
         5009.174     3.199860E-6
         5014.694     3.214517E-6
         5020.219     3.229196E-6
         5025.756     3.243961E-6
         5031.294     3.244663E-6
         5036.843     3.198801E-6
         5042.394     3.178645E-6
         5047.955     3.192997E-6
         5053.517     3.207319E-6
         5059.085     3.221642E-6
         5064.665     3.236043E-6
         5070.246     3.247708E-6
         5075.838     3.199186E-6
         5081.431     3.166271E-6
         5087.036     3.180207E-6
         5092.641     3.194174E-6
         5098.252     3.208189E-6
         5103.875     3.222237E-6
         5109.499     3.236291E-6
         5115.134     3.250378E-6
         5120.771     3.255488E-6
         5126.418     3.203441E-6
         5132.067     3.175111E-6
         5137.722     3.188704E-6
         5143.389     3.202359E-6
         5149.056     3.216042E-6
         5154.735     3.229760E-6
         5160.415     3.243481E-6
         5166.107     3.257234E-6
         5171.799     3.270992E-6
         5177.498     3.284771E-6
         5183.208     3.259358E-6
         5188.919     3.202888E-6
         5194.643     3.202955E-6
         5200.366     3.216290E-6
         5206.102     3.229608E-6
         5211.838     3.242949E-6
         5217.581     3.256342E-6
         5223.336     3.269737E-6
         5229.091     3.283115E-6
         5234.859     3.296523E-6
         5240.627     3.301953E-6
         5246.407     3.241478E-6
         5252.188     3.208506E-6
         5257.975     3.221510E-6
         5263.774     3.234471E-6
         5269.574     3.247396E-6
         5275.383     3.260397E-6
         5281.199     3.273422E-6
         5287.018     3.286458E-6
          5292.85     3.299496E-6
         5298.682     3.312507E-6
         5304.523     3.265378E-6
         5310.371     3.205056E-6
         5316.228     3.217666E-6
         5322.085     3.230239E-6
          5327.95     3.242755E-6
         5333.826     3.255337E-6
         5339.703     3.267941E-6
          5345.59     3.280571E-6
         5351.483     3.293202E-6
         5357.385     3.305809E-6
         5363.289     3.318421E-6
         5369.198     3.331050E-6
         5375.117     3.272357E-6
         5381.042     3.216422E-6
         5386.978     3.228582E-6
         5392.914     3.240716E-6
         5398.858     3.252839E-6
         5404.807     3.264972E-6
         5410.766     3.277129E-6
          5416.73     3.289299E-6
         5422.702     3.301458E-6
          5428.68     3.313597E-6
         5434.665     3.325752E-6
         5440.656     3.337921E-6
         5446.651     3.350097E-6
         5452.655     3.362266E-6
         5458.666     3.374414E-6
         5464.684     3.317617E-6
         5470.708     3.250980E-6
         5476.739     3.262579E-6
         5482.777     3.274192E-6
         5488.818     3.285813E-6
         5494.869     3.297454E-6
         5500.926     3.308982E-6
         5506.991     3.319823E-6
         5513.062     3.330671E-6
         5519.139     3.341523E-6
         5525.221     3.352379E-6
         5531.312     3.363233E-6
          5537.41     3.374042E-6
         5543.514     3.330755E-6
         5549.625     3.247024E-6
         5555.743     3.251566E-6
         5561.868     3.261887E-6
         5567.996     3.272164E-6
         5574.134     3.282453E-6
         5580.279     3.292746E-6
         5586.431     3.302982E-6
          5592.59     3.313223E-6
         5598.755     3.323469E-6
         5604.927     3.330396E-6
         5611.103     3.336483E-6
         5617.289     3.342576E-6
         5623.481     3.348637E-6
         5629.681     3.354674E-6
         5635.887     3.266499E-6
           5642.1     3.206420E-6
         5648.316     3.212167E-6
         5654.543     3.217918E-6
         5660.777     3.223669E-6
         5667.018     3.229421E-6
         5673.265     3.235142E-6
         5679.519     3.240834E-6
          5685.78     3.246528E-6
         5692.045     3.252219E-6
          5698.32     3.257912E-6
         5704.602     3.263606E-6
         5710.891     3.269303E-6
         5717.187     3.274999E-6
         5723.489     3.280693E-6
         5729.799     3.286387E-6
         5736.112     3.292079E-6
         5742.436     3.257591E-6
         5748.766     3.158595E-6
         5755.104     3.143610E-6
         5761.448     3.149020E-6
           5767.8     3.154431E-6
         5774.155     3.159797E-6
         5780.521     3.165150E-6
         5786.893     3.170557E-6
         5793.272     3.175932E-6
         5799.659     3.181278E-6
         5806.053     3.186681E-6
         5812.453     3.192063E-6
         5818.858     3.197401E-6
         5825.272     3.202794E-6
         5831.694     3.208179E-6
         5838.123     3.213518E-6
         5844.559     3.218902E-6
         5851.002     3.224293E-6
         5857.453     3.229624E-6
         5863.907     3.234991E-6
         5870.368     3.234114E-6
         5876.843     3.128882E-6
         5883.321     3.080053E-6
         5889.807     3.085158E-6
           5896.3     3.090262E-6
           5902.8     3.095364E-6
         5909.304     3.100461E-6
         5915.819     3.105612E-6
          5922.34     3.110746E-6
         5928.869     3.115838E-6
         5935.405     3.120977E-6
         5941.945     3.126123E-6
         5948.492     3.131266E-6
         5955.053     3.136411E-6
         5961.618     3.141568E-6
          5968.19     3.146768E-6
         5974.767     3.151917E-6
         5981.356     3.157066E-6
         5987.947     3.162255E-6
         5994.548     3.167443E-6
         6001.157     3.171881E-6
         6007.769     3.172793E-6
         6014.396     3.173742E-6
         6021.022     3.174708E-6
         6027.663     3.175673E-6
         6034.308     3.176630E-6
         6040.954     3.160747E-6
         6047.617     3.044030E-6
          6054.28     3.002873E-6
         6060.958     3.003814E-6
         6067.636     3.004694E-6
         6074.329     3.005614E-6
         6081.021     3.006551E-6
         6087.722     3.007481E-6
         6094.437     3.008410E-6
         6101.152     3.009335E-6
         6107.878     3.010256E-6
         6114.611     3.011171E-6
         6121.355     3.012085E-6
           6128.1     3.012996E-6
         6134.853     3.013901E-6
         6141.616     3.014819E-6
         6148.386     3.015783E-6
         6155.167     3.016694E-6
          6161.95     3.017587E-6
         6168.746     3.018479E-6
          6175.54     3.019367E-6
         6182.348     3.020252E-6
         6189.163     3.021132E-6
         6195.986     3.022010E-6
          6202.82     3.022886E-6
         6209.655     3.023760E-6
         6216.497     3.024570E-6
          6223.35     3.025406E-6
         6230.211     3.026271E-6
         6237.083     3.027068E-6
         6243.955     3.027901E-6
         6250.838     3.028752E-6
         6257.729     3.029545E-6
         6264.624     3.030291E-6
          6271.53     3.031028E-6
         6278.444     3.031810E-6
         6285.366     2.936827E-6
         6292.294     2.854834E-6
         6299.231     2.855505E-6
         6306.176     2.856173E-6
         6313.124     2.856812E-6
         6320.084     2.857417E-6
         6327.051     2.858019E-6
         6334.026     2.858618E-6
         6341.009     2.859206E-6
         6347.999     2.859738E-6
         6354.994     2.860270E-6
            6362.     2.860783E-6
         6369.013     2.861249E-6
         6376.034     2.861714E-6
         6383.063     2.862177E-6
           6390.1     2.862637E-6
         6397.145     2.863032E-6
         6404.193     2.863389E-6
         6411.253     2.863718E-6
         6418.321     2.864048E-6
         6425.397     2.864328E-6
          6432.48     2.864588E-6
         6439.571     2.864846E-6
          6446.67     2.865045E-6
         6453.774     2.865238E-6
         6460.889     2.865414E-6
         6468.011     2.865479E-6
         6475.142     2.865542E-6
          6482.28     2.865600E-6
         6489.426     2.865654E-6
         6496.576     2.865595E-6
         6503.738     2.862805E-6
         6510.908     2.857511E-6
         6518.085     2.852161E-6
         6525.271     2.846761E-6
         6532.465     2.841321E-6
         6539.666     2.835838E-6
         6546.872     2.830357E-6
         6554.089     2.824838E-6
         6561.314     2.819289E-6
         6568.548     2.813739E-6
         6575.789     2.808090E-6
         6583.038     2.802440E-6
         6590.295     2.796819E-6
         6597.557     2.791146E-6
          6604.83     2.785426E-6
         6612.111     2.779665E-6
           6619.4     2.773858E-6
         6626.698     2.768111E-6
         6634.003     2.762300E-6
         6641.316     2.756442E-6
         6648.634     2.750638E-6
         6655.964     2.744732E-6
         6663.301     2.738829E-6
         6670.647     2.732955E-6
         6678.001     2.727026E-6
         6685.363     2.721097E-6
         6692.729     2.715148E-6
         6700.107     2.709156E-6
         6707.494     2.703167E-6
         6714.888     2.697178E-6
         6722.291     2.691190E-6
         6729.701     2.685204E-6
          6737.12     2.679158E-6
         6744.543     2.673114E-6
         6751.979     2.667069E-6
         6759.422     2.661024E-6
         6766.874     2.654925E-6
         6774.333     2.648857E-6
         6781.802     2.642800E-6
         6789.278     2.636698E-6
         6796.759     2.630603E-6
         6804.251     2.624507E-6
         6811.752     2.618411E-6
         6819.262     2.612315E-6
          6826.78     2.606224E-6
         6834.306     2.600135E-6
         6841.836     2.594048E-6
         6849.378     2.587960E-6
         6856.929     2.581874E-6
         6864.488     2.575754E-6
         6872.056     2.569629E-6
         6879.632     2.563552E-6
         6887.216     2.557477E-6
         6894.805     2.551405E-6
         6902.405     2.545313E-6
         6910.015     2.539182E-6
         6917.632     2.533115E-6
         6925.258     2.527049E-6
         6932.893     2.521009E-6
         6940.536     2.515003E-6
         6948.183     2.508949E-6
         6955.839     2.502895E-6
         6963.511     2.496865E-6
         6971.188     2.509367E-6
         6978.873     2.622689E-6
         6986.566     2.633835E-6
         6994.261     2.627484E-6
         7001.975     2.620254E-6
         7009.694     2.610501E-6
         7017.422     2.600707E-6
         7025.158     2.590969E-6
         7032.902     2.581288E-6
         7040.652     2.571662E-6
          7048.41     2.561999E-6
         7056.184     2.552393E-6
         7063.962     2.542818E-6
          7071.75     2.533258E-6
         7079.542     2.523719E-6
          7087.35     2.514190E-6
          7095.16     2.504724E-6
         7102.981     2.495291E-6
         7110.812     2.485872E-6
         7118.647     2.476472E-6
         7126.499     2.467083E-6
         7134.351     2.457750E-6
          7142.22     2.480401E-6
         7150.089     2.581292E-6
         7157.968     2.458886E-6
         7165.863     2.420586E-6
         7173.758     2.464697E-6
         7181.671     2.543517E-6
         7189.584     2.533778E-6
         7197.514     2.524107E-6
         7205.444     2.514462E-6
         7213.384     2.504834E-6
          7221.34     2.495224E-6
         7229.297     2.485692E-6
         7237.271     2.476109E-6
         7245.245     2.466586E-6
         7253.236     2.457091E-6
         7261.228     2.447618E-6
         7269.229     2.438163E-6
         7277.243     2.526504E-6
         7285.265     2.553782E-6
           7293.3     2.543870E-6
         7301.336     2.534022E-6
         7309.381     2.524189E-6
         7317.439     2.514430E-6
         7325.506     2.504648E-6
         7333.586     2.494883E-6
         7341.667     2.485181E-6
         7349.764     2.475485E-6
         7357.863     2.465815E-6
          7365.97     2.533382E-6
          7374.09     2.575366E-6
         7382.219     2.565251E-6
         7390.362     2.555197E-6
         7398.505     2.545173E-6
         7406.661     2.535211E-6
         7414.826     2.525242E-6
         7422.996     2.515292E-6
         7431.184     2.505397E-6
         7439.372     2.495585E-6
         7447.573     2.579846E-6
         7455.783     2.599721E-6
         7464.002     2.589466E-6
         7472.231     2.579228E-6
         7480.464     2.569013E-6
          7488.71     2.558814E-6
         7496.966     2.548687E-6
         7505.231     2.601710E-6
         7513.505     2.648610E-6
         7521.788     2.637875E-6
         7530.076     2.627157E-6
         7538.377     2.616450E-6
         7546.688     2.605750E-6
         7555.007     2.654124E-6
         7563.335     2.701862E-6
         7571.673     2.690712E-6
         7580.021     2.679577E-6
         7588.373     2.668465E-6
         7596.738     2.657358E-6
         7605.113     2.705089E-6
         7613.497     2.749754E-6
          7621.89     2.738204E-6
         7630.292     2.726668E-6
         7638.704     2.715150E-6
         7647.121     2.703651E-6
         7655.551     2.754431E-6
         7663.991     2.792380E-6
         7672.439     2.780443E-6
         7680.897     2.768519E-6
         7689.365     2.756611E-6
         7697.838     2.830778E-6
         7706.324     2.842168E-6
         7714.819     2.829836E-6
         7723.324     2.817521E-6
         7731.838     2.825057E-6
         7740.362     2.900359E-6
         7748.895     2.887629E-6
         7757.434     2.874918E-6
         7765.985     2.925673E-6
         7774.546     2.955085E-6
         7783.117     2.941957E-6
         7791.697     2.946605E-6
         7800.287     3.019898E-6
         7808.886     3.006367E-6
          7817.49     2.992861E-6
         7826.108     3.042129E-6
         7834.736     3.068179E-6
         7843.373     3.054271E-6
          7852.02     3.060856E-6
         7860.676     3.127409E-6
         7869.337     3.113119E-6
         7878.013     3.178944E-6
         7886.697     3.184105E-6
         7895.392     3.169426E-6
         7904.096     3.154773E-6
         7912.809     3.167713E-6
         7921.532     3.223223E-6
         7930.261     3.210736E-6
         7939.003     3.280323E-6
         7947.755     3.274553E-6
         7956.517     3.259167E-6
         7965.288     3.294263E-6
         7974.069     3.323440E-6
          7982.86     3.307695E-6
         7991.656     3.136259E-6
         8000.466     2.409749E-6
         8009.286     3.705618E-6
         8018.115     3.261639E-6
         8026.954     2.927218E-6
         8035.803     3.405618E-6
         8044.658     3.631488E-6
         8053.526     3.668006E-6
         8062.404     4.190706E-6
         8071.292     4.362174E-6
          8080.19     3.863637E-6
         8089.098     3.447380E-6
         8098.016     3.801288E-6
         8106.938     3.936761E-6
         8115.875     3.834428E-6
         8124.822     3.532174E-6
         8133.779     3.320359E-6
         8142.746     3.302467E-6
         8151.723     3.157914E-6
         8160.709     3.234352E-6
         8169.701     4.462394E-6
         8178.708     3.904513E-6
         8187.724     4.041382E-6
          8196.75     3.705762E-6
         8205.786     3.773076E-6
         8214.832     4.058400E-6
         8223.884     4.209810E-6
          8232.95     4.181056E-6
         8242.026     3.837874E-6
         8251.112     3.450814E-6
         8260.208     3.507299E-6
         8269.314     4.165751E-6
         8278.431     3.554362E-6
         8287.552     4.025797E-6
         8296.688     4.093528E-6
         8305.835     3.969968E-6
         8314.991     3.944079E-6
         8324.153     3.799126E-6
         8333.334     3.560104E-6
         8342.521     3.726886E-6
         8351.713     4.180110E-6
          8360.92     3.695533E-6
         8370.138     3.622677E-6
         8379.365     3.865201E-6
         8388.603     3.690002E-6
          8397.85     3.971268E-6
         8407.104     4.531434E-6
         8416.371     4.494092E-6
         8425.649     3.891905E-6
         8434.934     3.856962E-6
         8444.236     4.211825E-6
         8453.546     4.018914E-6
         8462.865     3.671113E-6
         8472.189     3.856750E-6
         8481.525     3.997111E-6
          8490.88     3.763934E-6
          8500.24     4.404355E-6
         8509.611     4.261854E-6
         8518.987     3.827308E-6
         8528.384     3.926897E-6
          8537.78     4.492693E-6
         8547.188     4.305030E-6
         8556.615     4.200805E-6
         8566.043     3.817284E-6
         8575.486     3.408829E-6
          8584.94     3.776385E-6
         8594.409     4.154502E-6
         8603.879     3.800133E-6
         8613.359     3.497367E-6
         8622.854     3.643469E-6
          8632.36     3.931403E-6
         8641.882     3.795294E-6
         8651.403     3.375054E-6
         8660.937     3.921528E-6
         8670.484     3.856112E-6
         8680.043     4.063465E-6
         8689.611     4.607461E-6
         8699.191     4.385826E-6
         8708.781     3.722185E-6
         8718.382     3.467459E-6
         8727.988     3.880477E-6
          8737.61     3.402279E-6
         8747.242     3.948397E-6
         8756.886     3.930967E-6
         8766.539     3.486768E-6
         8776.203     3.516977E-6
         8785.879     3.456386E-6
          8795.56     3.626267E-6
         8805.256     3.816129E-6
         8814.963     3.736323E-6
         8824.681     3.555641E-6
         8834.408     3.529115E-6
         8844.147     3.637991E-6
         8853.893     3.548919E-6
         8863.653     3.618144E-6
         8873.425     3.702371E-6
         8883.207     3.438696E-6
            8893.     3.255758E-6
         8902.804     3.486415E-6
         8912.618     3.253092E-6
         8922.438     2.990794E-6
         8932.274     3.356500E-6
         8942.122     3.230955E-6
         8951.979     3.087355E-6
         8961.849     2.886588E-6
         8971.728     2.856806E-6
         8981.618     3.215136E-6
         8991.515     3.271652E-6
         9001.427     2.858695E-6
         9011.351     2.864071E-6
         9021.284     2.534157E-6
         9031.229     2.664213E-6
         9041.186     3.176097E-6
         9051.147     3.238735E-6
         9061.126     2.730010E-6
         9071.115     2.967867E-6
         9081.115     3.157351E-6
         9091.126     2.964343E-6
         9101.148     2.542939E-6
         9111.182     2.426015E-6
         9121.221     2.580037E-6
         9131.276     2.750892E-6
         9141.343     2.579872E-6
          9151.42     2.541553E-6
         9161.509     2.470093E-6
         9171.608     2.571907E-6
         9181.719     2.490664E-6
         9191.836     2.416480E-6
          9201.97     2.555493E-6
         9212.113     2.369060E-6
          9222.27     2.386628E-6
         9232.436     1.913548E-6
         9242.613     2.108681E-6
         9252.798     1.862617E-6
         9262.998     1.943739E-6
          9273.21     2.041778E-6
         9283.433     2.002884E-6
         9293.667     1.991119E-6
         9303.912     1.988354E-6
         9314.169     1.927467E-6
         9324.432     1.967426E-6
         9334.711     1.929109E-6
         9345.002     1.897732E-6
         9355.304     1.982728E-6
         9365.617     1.940679E-6
         9375.941     1.766257E-6
         9386.278     1.771002E-6
          9396.62     1.738140E-6
         9406.979     1.639071E-6
          9417.35     1.572723E-6
         9427.731     1.472749E-6
         9438.124     1.605916E-6
         9448.529     1.547746E-6
          9458.94     1.483182E-6
         9469.368     1.305973E-6
         9479.807     1.345137E-6
         9490.258     1.584604E-6
          9500.72     1.246825E-6
         9511.193     1.268999E-6
         9521.679     1.251856E-6
          9532.17     1.312442E-6
         9542.679     1.184097E-6
         9553.198     1.192280E-6
         9563.729     1.151856E-6
         9574.272     1.145206E-6
         9584.828     1.160808E-6
         9595.395     1.204965E-6
         9605.967     1.075613E-6
         9616.557     1.189671E-6
         9627.158     1.014459E-6
         9637.771     9.411679E-7
         9648.396     1.032157E-6
         9659.032     1.030098E-6
         9669.681     1.134095E-6
         9680.335     1.056472E-6
         9691.007     9.003184E-7
          9701.69     8.882427E-7
         9712.386     8.634615E-7
         9723.093     9.221044E-7
         9733.812     8.051077E-7
         9744.536     7.790719E-7
         9755.279     8.024016E-7
         9766.033     7.790766E-7
           9776.8     7.581947E-7
         9787.577     6.894784E-7
         9798.367     6.548281E-7
         9809.169     7.370629E-7
         9819.978     7.918003E-7
         9830.803     5.380085E-7
         9841.641     5.378924E-7
          9852.49     6.146474E-7
         9863.352     5.170690E-7
         9874.225     5.164535E-7
          9885.11     4.808557E-7
         9896.003     4.930372E-7
         9906.912     5.212758E-7
         9917.828     4.422025E-7
         9928.767     4.456851E-7
         9939.713     4.170976E-7
          9950.67     3.930898E-7
         9961.634     3.978637E-7
          9972.61     3.873213E-7
          9983.61     3.303068E-7
         9994.616     3.019478E-7
         10005.63     3.003455E-7
         10016.66     3.113437E-7
         10027.71     3.405852E-7
         10038.76     2.778313E-7
         10049.82     3.000485E-7
          10060.9     2.463476E-7
         10071.99     2.809376E-7
          10083.1     2.604787E-7
         10094.21     2.521692E-7
         10105.34     2.655186E-7
         10116.47     2.771601E-7
         10127.62     2.343320E-7
         10138.79     2.536105E-7
         10149.96     2.304640E-7
         10161.16     1.655403E-7
         10172.35     1.992824E-7
         10183.56     2.001206E-7
         10194.79     2.184719E-7
         10206.03     1.751247E-7
         10217.29     1.520572E-7
         10228.54     1.785079E-7
         10239.83     1.654634E-7
         10251.11     1.446738E-7
          10262.4     1.426619E-7
         10273.72     1.366890E-7
         10285.04     1.315510E-7
         10296.39     1.223960E-7
         10307.73     1.169848E-7
          10319.1     1.100783E-7
         10330.47     9.960144E-8
         10341.85     1.033754E-7
         10353.26     1.027107E-7
         10364.67     9.688217E-8
          10376.1     8.940192E-8
         10387.53     8.849245E-8
         10398.99     7.035487E-8
         10410.45     6.305388E-8
         10421.92     6.681736E-8
         10433.41     5.778594E-8
         10444.91     4.384509E-8
         10456.43     4.385197E-8
         10467.95     4.205414E-8
          10479.5     3.607547E-8
         10491.04     3.214837E-8
          10502.6     2.379569E-8
         10514.19     2.655746E-8
         10525.77     2.963438E-8
         10537.38     2.662077E-8
         10548.99     2.787103E-8
         10560.63     2.172200E-8
         10572.26     2.785404E-8
         10583.91     2.527968E-8
         10595.59     1.846788E-8
         10607.26     1.963642E-8
         10618.96     2.343602E-8
         10630.66     2.369307E-8
         10642.38     1.883638E-8
         10654.11     1.931376E-8
         10665.85     1.428026E-8
         10677.62     1.809918E-8
         10689.38     1.701923E-8
         10701.17     1.874603E-8
         10712.96     1.652219E-8
         10724.77     1.539359E-8
          10736.6     1.363060E-8
         10748.43     1.355323E-8
         10760.27     1.363585E-8
         10772.14     1.506721E-8
         10784.01     1.105560E-8
          10795.9     1.126629E-8
         10807.81     1.120227E-8
         10819.72     8.735965E-9
         10831.65     9.070687E-9
         10843.57     8.524792E-9
         10855.53     8.380445E-9
         10867.51     8.662366E-9
         10879.48     7.596014E-9
         10891.48     6.410334E-9
         10903.48     5.968430E-9
          10915.5     5.492515E-9
         10927.52     5.408899E-9
         10939.58     5.288045E-9
         10951.64     3.761427E-9
         10963.71     3.129749E-9
         10975.79     3.479673E-9
         10987.88     3.777564E-9
           11000.     3.168701E-9
