#  Table wf2f218wsys.tab  Mon 12:21:39 02-Jun-97

#      WAVELENGTH      THROUGHPUT
#       angstroms                

            1216.    6.096060E-21
          1217.34    6.180345E-21
         1218.682    6.265318E-21
         1220.026    6.350711E-21
         1221.371    6.417588E-21
         1222.717    6.484921E-21
         1224.065    6.552793E-21
         1225.414    6.621160E-21
         1226.765    6.690034E-21
         1228.117    6.759414E-21
         1229.471    6.829301E-21
         1230.826    6.889025E-21
         1232.183    6.942328E-21
         1233.542    6.995975E-21
         1234.901    7.049896E-21
         1236.262    7.104163E-21
         1237.625    7.158733E-21
         1238.989    7.213657E-21
         1240.355    7.265299E-21
         1241.722    7.306785E-21
         1243.091    7.348496E-21
         1244.461    7.390404E-21
         1245.833    7.432494E-21
         1247.207    7.474827E-21
         1248.582    7.517348E-21
         1249.957    7.560048E-21
         1251.335    7.592920E-21
         1252.715    7.625598E-21
         1254.095    7.658386E-21
         1255.478    7.691326E-21
         1256.862    7.724381E-21
         1258.247    7.757541E-21
         1259.634    7.790844E-21
         1261.023    7.817971E-21
         1262.413    7.842920E-21
         1263.805    7.867938E-21
         1265.198    7.893026E-21
         1266.592    7.918174E-21
         1267.989    7.943407E-21
         1269.387    7.968720E-21
         1270.786    7.990033E-21
         1272.187    8.008237E-21
         1273.588    8.026462E-21
         1274.992    8.044728E-21
         1276.399    8.063033E-21
         1277.805    8.081355E-21
         1279.214    8.099712E-21
         1280.624    8.115614E-21
         1282.035    8.128378E-21
         1283.449    8.141162E-21
         1284.864    8.153945E-21
          1286.28    8.166723E-21
         1287.698    8.179517E-21
         1289.117    8.192314E-21
         1290.538    8.203579E-21
         1291.961    8.212316E-21
         1293.385    8.221042E-21
         1294.811    8.229752E-21
         1296.238    8.238454E-21
         1297.668    8.247150E-21
         1299.098    8.255826E-21
          1300.53    8.263547E-21
         1301.963    8.269640E-21
         1303.398    8.275710E-21
         1304.835    8.281761E-21
         1306.274    8.287792E-21
         1307.713    8.293796E-21
         1309.155    8.299782E-21
         1310.597    8.304915E-21
         1312.042    8.308852E-21
         1313.489    8.312758E-21
         1314.937    8.316636E-21
         1316.386    8.320484E-21
         1317.837    8.324302E-21
          1319.29    8.328091E-21
         1320.744    8.331035E-21
           1322.2    8.333171E-21
         1323.657    8.335268E-21
         1325.117    8.337331E-21
         1326.578    8.339359E-21
         1328.039    8.341347E-21
         1329.503    8.343302E-21
         1330.969    8.344272E-21
         1332.436    8.344714E-21
         1333.905    8.345116E-21
         1335.376    8.345476E-21
         1336.847    8.345792E-21
         1338.321    8.346067E-21
         1339.796    8.346301E-21
         1341.273    8.345659E-21
         1342.752    8.344837E-21
         1344.232    8.343968E-21
         1345.713    8.343055E-21
         1347.197    8.342095E-21
         1348.682    8.341089E-21
         1350.169    8.339954E-21
         1351.657    8.338147E-21
         1353.146    8.336291E-21
         1354.638    8.333383E-21
         1356.131    8.329086E-21
         1357.627    8.324745E-21
         1359.123    8.320366E-21
         1360.621    8.315777E-21
         1362.121    8.310911E-21
         1363.622    8.306005E-21
         1365.126    8.301050E-21
          1366.63    8.296055E-21
         1368.137    8.291014E-21
         1369.645    8.285929E-21
         1371.155    8.280787E-21
         1372.667    8.275594E-21
          1374.18    8.270357E-21
         1375.694    8.265080E-21
         1377.211    8.259753E-21
         1378.729    8.254384E-21
         1380.249    8.249009E-21
         1381.771    8.243792E-21
         1383.294    8.238531E-21
         1384.818    8.233230E-21
         1386.345    8.227882E-21
         1387.874    8.222486E-21
         1389.403    8.217051E-21
         1390.935    8.211949E-21
         1392.468    8.207045E-21
         1394.002    8.202101E-21
          1395.54    8.197108E-21
         1397.078    8.192077E-21
         1398.618    8.187007E-21
          1400.16    8.181975E-21
         1401.703    8.177635E-21
         1403.248    8.173256E-21
         1404.795    8.168833E-21
         1406.343    8.164374E-21
         1407.894    8.159873E-21
         1409.446    8.155331E-21
         1410.999    8.151017E-21
         1412.555    8.146808E-21
         1414.112    8.142561E-21
          1415.67    8.138278E-21
         1417.231    8.133953E-21
         1418.793    8.129590E-21
         1420.357    8.125146E-21
         1421.923    8.120524E-21
         1423.491    8.115862E-21
         1425.059    8.111163E-21
          1426.63    8.106424E-21
         1428.203    8.101644E-21
         1429.777    8.096826E-21
         1431.354    8.091448E-21
         1432.932    8.085943E-21
          1434.51    8.080401E-21
         1436.092    8.074813E-21
         1437.676    8.069184E-21
          1439.26    8.063517E-21
         1440.847    8.057171E-21
         1442.435    8.050224E-21
         1444.024    8.043236E-21
         1445.617    8.036198E-21
          1447.21    8.029124E-21
         1448.805    8.022004E-21
         1450.402    8.014387E-21
         1452.001    8.005384E-21
         1453.602    7.996325E-21
         1455.205    7.987223E-21
         1456.808    7.978080E-21
         1458.414    7.968884E-21
         1460.022    7.959613E-21
         1461.631    7.948112E-21
         1463.243    7.936560E-21
         1464.856    7.924959E-21
          1466.47    7.913313E-21
         1468.086    7.901609E-21
         1469.706    7.889849E-21
         1471.325    7.875723E-21
         1472.947    7.861019E-21
         1474.571    7.846260E-21
         1476.196    7.831451E-21
         1477.824    7.816574E-21
         1479.453    7.801652E-21
         1481.083    7.784496E-21
         1482.716    7.766169E-21
          1484.35    7.747784E-21
         1485.987    7.729340E-21
         1487.625    7.716606E-21
         1489.264    7.713103E-21
         1490.906    7.707345E-21
         1492.549    7.699717E-21
         1494.195    7.691912E-21
         1495.842    7.683932E-21
         1497.491    7.675776E-21
         1499.142    7.667444E-21
         1500.794    7.654108E-21
         1502.449    7.635318E-21
         1504.105    7.616322E-21
         1505.763    7.597097E-21
         1507.423    7.577651E-21
         1509.084    7.557994E-21
         1510.748    7.536766E-21
         1512.414    7.513692E-21
          1514.08    7.490400E-21
         1515.749    7.466869E-21
         1517.419    7.443120E-21
         1519.093    7.419116E-21
         1520.768    7.394088E-21
         1522.444    7.367871E-21
         1524.122    7.341436E-21
         1525.802    7.314757E-21
         1527.484    7.287849E-21
         1529.168    7.260708E-21
         1530.854    7.232939E-21
          1532.54    7.204565E-21
          1534.23    7.175949E-21
         1535.921    7.147102E-21
         1537.615    7.118015E-21
          1539.31    7.088729E-21
         1541.006    7.059397E-21
         1542.705    7.029974E-21
         1544.405    7.000342E-21
         1546.109    6.959122E-21
         1547.812    6.911838E-21
         1549.518    6.864549E-21
         1551.227    6.818187E-21
         1552.936    6.772225E-21
         1554.648    6.726261E-21
         1556.363    6.680292E-21
         1558.078    6.634383E-21
         1559.795    6.588477E-21
         1561.515    6.544572E-21
         1563.235    6.500975E-21
         1564.958    6.457373E-21
         1566.685    6.413766E-21
         1568.411    6.370218E-21
          1570.14    6.326907E-21
         1571.871    6.286359E-21
         1573.603    6.245845E-21
         1575.338    6.205320E-21
         1577.075    6.164785E-21
         1578.813    6.124303E-21
         1580.553    6.085051E-21
         1582.295    6.048484E-21
         1584.039    6.011902E-21
         1585.785    5.975325E-21
         1587.534    5.938752E-21
         1589.284    5.902187E-21
         1591.036    5.868303E-21
          1592.79    5.836273E-21
         1594.545    5.804256E-21
         1596.303    5.772223E-21
         1598.062    5.740187E-21
         1599.824    5.708148E-21
         1601.588    5.680736E-21
         1603.353    5.653841E-21
          1605.12    5.626925E-21
          1606.89    5.599998E-21
         1608.661    5.573062E-21
         1610.434    5.547437E-21
          1612.21    5.525863E-21
         1613.986    5.504284E-21
         1615.765    5.482682E-21
         1617.548    5.461052E-21
          1619.33    5.439429E-21
         1621.115    5.421219E-21
         1622.902    5.405055E-21
          1624.69    5.388882E-21
         1626.482    5.372676E-21
         1628.275    5.356467E-21
         1630.069    5.340450E-21
         1631.867    5.329797E-21
         1633.665    5.319134E-21
         1635.466    5.308441E-21
         1637.269    5.297736E-21
         1639.074    5.287014E-21
          1640.88    5.279103E-21
         1642.689    5.274147E-21
           1644.5    5.269179E-21
         1646.313    5.264199E-21
         1648.128    5.259513E-21
         1649.944    5.258879E-21
         1651.763    5.263984E-21
         1653.585    5.269270E-21
         1655.407    5.274549E-21
         1657.232    5.279828E-21
         1659.058    5.285102E-21
         1660.888    5.293043E-21
         1662.719    5.303825E-21
         1664.552    5.314628E-21
         1666.386    5.325447E-21
         1668.223    5.336291E-21
         1670.062    5.347320E-21
         1671.903    5.363124E-21
         1673.746    5.378971E-21
          1675.59    5.394858E-21
         1677.437    5.410801E-21
         1679.287    5.426790E-21
         1681.139    5.445506E-21
         1682.991    5.465943E-21
         1684.847    5.486464E-21
         1686.704    5.507058E-21
         1688.563    5.527716E-21
         1690.425    5.549327E-21
         1692.287    5.573907E-21
         1694.153    5.598600E-21
         1696.021    5.623392E-21
          1697.89    5.648272E-21
         1699.762    5.673276E-21
         1701.636    5.701219E-21
         1703.512    5.729705E-21
         1705.389    5.758297E-21
         1707.269    5.787031E-21
         1709.151    5.815890E-21
         1711.035    5.846441E-21
         1712.922    5.878422E-21
         1714.809    5.910539E-21
         1716.699    5.942817E-21
         1718.592    5.975249E-21
         1720.485    6.008398E-21
         1722.383    6.043447E-21
         1724.281    6.078625E-21
         1726.182    6.113994E-21
         1728.086    6.149553E-21
          1729.99    6.185251E-21
         1731.897    6.223047E-21
         1733.806    6.261044E-21
         1735.718    6.299232E-21
          1737.63    6.337589E-21
         1739.546    6.376157E-21
         1741.463    6.416044E-21
         1743.383    6.456484E-21
         1745.305    6.497130E-21
         1747.228    6.537964E-21
         1749.154    6.579027E-21
         1751.084     2.077495E-6
         1753.013     5.803705E-6
         1754.946     9.570701E-6
          1756.88     1.337705E-5
         1758.817     1.722276E-5
         1760.756     2.110932E-5
         1762.697     2.503802E-5
         1764.639     2.900594E-5
         1766.585     3.301709E-5
         1768.532     3.706995E-5
         1770.482     4.116604E-5
         1772.434     4.530853E-5
         1774.387     4.949420E-5
         1776.343     5.372170E-5
         1778.301     5.799495E-5
         1780.262     6.231546E-5
         1782.224     6.668248E-5
         1784.189     7.109728E-5
         1786.156     7.555797E-5
         1788.124     8.006255E-5
         1790.096     8.461824E-5
         1792.068     8.922631E-5
         1794.044     9.388461E-5
         1796.022     9.859117E-5
         1798.001     1.033439E-4
         1799.984     1.081502E-4
         1801.968     1.130139E-4
         1803.954     1.179280E-4
         1805.942     1.228905E-4
         1807.933     1.279059E-4
         1809.926     1.329725E-4
         1811.922     1.381053E-4
         1813.919     1.432911E-4
         1815.918     1.485273E-4
          1817.92     1.538198E-4
         1819.925     1.591682E-4
          1821.93     1.645816E-4
         1823.938     1.700533E-4
         1825.948     1.755781E-4
         1827.962     1.811643E-4
         1829.976     1.868012E-4
         1831.995     1.925197E-4
         1834.013     1.982906E-4
         1836.035     2.041227E-4
         1838.059     2.100135E-4
         1840.084     2.159611E-4
         1842.113     2.219912E-4
         1844.144     2.280819E-4
         1846.177     2.342335E-4
         1848.212     2.404468E-4
         1850.248     2.530282E-4
         1852.288     2.962592E-4
          1854.33     2.568546E-4
         1856.375     2.720842E-4
         1858.421     2.962210E-4
         1860.469     3.074049E-4
          1862.52     3.183770E-4
         1864.573     3.162489E-4
         1866.628     3.271968E-4
         1868.686     3.227079E-4
         1870.746     3.393460E-4
         1872.808     3.686038E-4
         1874.872     3.802058E-4
         1876.939     3.999743E-4
         1879.008     4.259552E-4
         1881.079     4.367860E-4
         1883.153     4.512910E-4
         1885.229     4.698904E-4
         1887.307     4.725897E-4
         1889.387     4.854341E-4
         1891.471     5.041158E-4
         1893.555     5.404848E-4
         1895.643     5.602791E-4
         1897.732     5.801687E-4
         1899.823     6.047591E-4
         1901.919     6.169757E-4
         1904.014     6.296645E-4
         1906.113     6.602189E-4
         1908.215     6.805344E-4
         1910.317     7.105332E-4
         1912.424     7.275690E-4
         1914.532     7.497977E-4
         1916.643     7.733254E-4
         1918.755     8.001891E-4
          1920.87     8.281759E-4
         1922.988     8.471166E-4
         1925.107     8.729757E-4
          1927.23     9.047223E-4
         1929.354     9.376360E-4
         1931.481     9.619910E-4
          1933.61     9.811866E-4
          1935.74     0.001024302
         1937.875     0.001050089
         1940.011     0.001088917
         1942.149     0.001117184
          1944.29     0.001139003
         1946.434     0.001163536
          1948.58     0.001193879
         1950.728     0.001234768
         1952.878      0.00126956
          1955.03     0.001295392
         1957.185     0.001316892
         1959.343     0.001354579
         1961.503     0.001390011
         1963.665     0.001418672
         1965.829     0.001457102
         1967.996     0.001499803
         1970.167     0.001529655
         1972.339     0.001549852
         1974.512     0.001590018
         1976.689     0.001628383
         1978.868     0.001651523
         1981.049     0.001687244
         1983.233     0.001709267
         1985.418     0.001745733
         1987.607     0.001777651
         1989.798     0.001805179
         1991.992     0.001843112
         1994.188     0.001878161
         1996.386     0.001893385
         1998.586     0.001932463
         2000.789     0.001951404
         2002.996      0.00198554
         2005.203     0.002020139
         2007.414     0.002042338
         2009.627      0.00207207
         2011.841     0.002110558
          2014.06     0.002136816
         2016.279     0.002149525
         2018.502     0.002177179
         2020.727     0.002202051
         2022.955     0.002227341
         2025.185     0.002259017
         2027.417     0.002290108
         2029.652     0.002307441
         2031.889     0.002336075
         2034.129     0.002348578
         2036.371     0.002378276
         2038.616     0.002398696
         2040.864     0.002415078
         2043.112     0.002443042
         2045.365     0.002457658
         2047.621     0.002479631
         2049.877     0.002510624
         2052.137     0.002519611
         2054.399     0.002543682
         2056.664     0.002569668
         2058.931     0.002588102
         2061.201     0.002598297
         2063.472     0.002610925
         2065.747     0.002635195
         2068.024     0.002649466
         2070.304     0.002658455
         2072.586     0.002671633
         2074.871     0.002693023
         2077.157     0.002703434
         2079.447     0.002715115
          2081.74     0.002734066
         2084.034     0.002750149
         2086.332     0.002759967
         2088.632     0.002772599
         2090.933     0.002789013
          2093.24     0.002792605
         2095.546     0.002805504
         2097.856      0.00282331
         2100.169     0.002829384
         2102.483      0.00284478
         2104.802     0.002857006
         2107.121     0.002866737
         2109.444     0.002871342
         2111.769     0.002889302
         2114.097     0.002886138
         2116.428     0.002906703
          2118.76     0.002910489
         2121.097      0.00291959
         2123.434     0.002928215
         2125.775     0.002935444
         2128.118     0.002943627
         2130.463     0.002951091
         2132.813     0.002953386
         2135.163     0.002961969
         2137.518     0.002960009
         2139.875     0.002970309
         2142.231     0.002971907
         2144.594     0.002980513
         2146.958     0.002976619
         2149.325       0.0029819
         2151.693     0.002992237
         2154.065     0.002999487
          2156.44     0.003002654
         2158.817     0.003001614
         2161.197     0.003001617
         2163.578     0.002997726
         2165.964     0.002998729
         2168.353     0.002997246
         2170.743     0.002991498
         2173.135     0.003002758
         2175.529     0.003004222
         2177.929     0.002997022
         2180.329     0.002993025
         2182.733      0.00299358
         2185.138     0.002985591
         2187.547      0.00298748
         2189.959     0.002978453
         2192.372     0.002973613
         2194.789     0.002969826
         2197.208      0.00296259
         2199.632      0.00295198
         2202.056     0.002962744
         2204.482     0.002976548
         2206.912     0.002985089
         2209.345     0.002998028
         2211.782      0.00300734
         2214.219     0.003014512
          2216.66     0.003026461
         2219.104     0.003037424
         2221.549     0.003045284
         2223.998     0.003049347
         2226.449     0.003057358
         2228.904     0.003067281
         2231.361      0.00307401
          2233.82     0.003072806
         2236.284     0.003075272
         2238.748     0.003075143
         2241.217     0.003077667
         2243.687     0.003082124
         2246.159     0.003077884
         2248.636     0.003078987
         2251.114     0.003077291
         2253.597     0.003073899
          2256.08     0.003070028
         2258.567     0.003066047
         2261.057     0.003059526
         2263.548     0.003052432
         2266.045     0.003037999
         2268.542     0.003030857
         2271.042     0.003030549
         2273.546     0.003020332
         2276.051     0.003014225
         2278.562     0.002993005
         2281.072     0.002987914
         2283.588     0.002969822
         2286.104     0.002963881
         2288.623      0.00294485
         2291.147     0.002924371
         2293.672     0.002915967
         2296.202     0.002893168
         2298.732     0.002874667
         2301.266     0.002858432
         2303.803     0.002832995
         2306.342     0.002815435
         2308.885     0.002799465
         2311.431     0.002786309
         2313.979     0.002746697
          2316.53     0.002733054
         2319.082     0.002709521
         2321.639     0.002676789
         2324.198     0.002648163
          2326.76     0.002629118
         2329.325     0.002605388
         2331.892     0.002569909
         2334.463     0.002543872
         2337.038     0.002512347
         2339.613     0.002484728
         2342.193     0.002453269
         2344.774     0.002420219
         2347.357     0.002388429
         2349.947     0.002352057
         2352.536     0.002317748
         2355.131     0.002285193
         2357.726     0.002252771
         2360.326      0.00222017
         2362.927     0.002181163
         2365.531     0.002143585
          2368.14     0.002108472
         2370.749     0.002074786
         2373.364     0.002039783
         2375.979     0.001999745
         2378.598     0.001962132
          2381.22     0.001925659
         2383.844     0.001887153
         2386.473       0.0018494
         2389.103     0.001812974
         2391.737     0.001776119
         2394.373     0.001736933
         2397.012     0.001698995
         2399.656     0.001664063
           2402.3     0.001631541
         2404.949     0.001591839
           2407.6     0.001551906
         2410.252     0.001517197
          2412.91     0.001482937
          2415.57     0.001446737
         2418.233     0.001411636
         2420.898      0.00137475
         2423.567     0.001343257
         2426.238     0.001314288
         2428.913     0.001279768
         2431.591      0.00124767
         2434.271      0.00121474
         2436.954     0.001181814
         2439.641     0.001153354
         2442.331     0.001119313
         2445.022     0.001092024
         2447.718     0.001062764
         2450.416     0.001033676
         2453.117     0.001005112
         2455.822     9.764897E-4
         2458.528     9.530238E-4
         2461.239     9.256891E-4
         2463.951     8.994964E-4
         2466.669     8.798870E-4
         2469.387     8.461047E-4
         2472.108     8.225876E-4
         2474.834     8.022355E-4
         2477.561     7.816856E-4
         2480.294     7.608331E-4
         2483.027     7.392684E-4
         2485.764     7.174673E-4
         2488.504     6.954385E-4
         2491.246     6.757482E-4
         2493.994     6.589156E-4
         2496.742     6.419249E-4
         2499.494     6.247465E-4
          2502.25     6.070390E-4
         2505.007     5.890803E-4
          2507.77     5.709195E-4
         2510.533     5.535029E-4
         2513.302     5.397226E-4
         2516.072     5.258129E-4
         2518.844     5.117600E-4
         2521.622     4.974537E-4
         2524.401     4.829487E-4
         2527.185     4.682824E-4
         2529.969     4.534816E-4
         2532.759     4.421358E-4
         2535.551     4.307131E-4
         2538.344     4.187275E-4
         2541.144     4.061213E-4
         2543.946     3.933897E-4
          2546.75     3.805918E-4
         2549.558     3.677265E-4
         2552.367     3.575195E-4
          2555.18     3.477619E-4
         2557.997     3.379520E-4
         2560.817     3.280352E-4
         2563.639     3.179369E-4
         2566.465     3.077800E-4
         2569.294     2.975701E-4
         2572.128     2.891007E-4
         2574.962     2.811915E-4
           2577.8     2.732405E-4
         2580.643     2.652493E-4
         2583.486     2.572584E-4
         2586.336     2.492165E-4
         2589.186     2.411411E-4
         2592.039     2.344540E-4
         2594.897     2.282983E-4
         2597.757     2.221155E-4
         2600.622     2.158650E-4
         2603.487     2.094857E-4
         2606.357     2.030687E-4
         2609.231     1.966173E-4
         2612.106     1.913062E-4
         2614.985     1.863924E-4
          2617.87     1.814488E-4
         2620.754     1.764555E-4
         2623.643     1.713535E-4
         2626.536     1.662233E-4
         2629.431     1.610653E-4
         2632.328     1.568737E-4
         2635.232     1.528975E-4
         2638.135     1.489030E-4
         2641.045     1.448986E-4
         2643.955     1.409062E-4
          2646.87     1.368892E-4
         2649.788     1.328501E-4
         2652.708     1.296390E-4
         2655.633     1.264730E-4
          2658.56     1.232921E-4
          2661.49     1.200692E-4
         2664.424     1.168057E-4
          2667.36     1.135257E-4
         2670.302     1.103035E-4
         2673.244     1.077625E-4
         2676.193     1.052043E-4
         2679.142     1.026342E-4
         2682.094     9.998697E-5
         2685.052     9.729652E-5
         2688.012     9.459255E-5
         2690.975     9.209156E-5
          2693.94     9.002339E-5
          2696.91     8.794251E-5
         2699.883     8.584990E-5
         2702.858     8.384461E-5
         2705.839     8.182179E-5
         2708.822     7.978033E-5
         2711.807     7.803390E-5
         2714.796     7.647489E-5
         2717.789     7.490031E-5
         2720.785     7.328497E-5
         2723.785     7.158219E-5
         2726.788     6.986289E-5
         2729.792     6.812791E-5
         2732.802     6.680090E-5
         2735.814     6.549256E-5
          2738.83     6.417136E-5
         2741.849     6.280319E-5
         2744.872     6.140005E-5
         2747.898     5.998342E-5
         2750.926     5.861097E-5
         2753.958     5.736084E-5
         2756.994     5.610735E-5
         2760.034     5.484988E-5
         2763.076     5.354251E-5
         2766.121     5.223230E-5
         2769.172     5.091714E-5
         2772.223     4.977693E-5
         2775.281     4.869870E-5
         2778.339     4.761867E-5
           2781.4     4.654047E-5
         2784.468     4.546418E-5
         2787.536     4.438607E-5
          2790.61     4.334811E-5
         2793.685     4.248638E-5
         2796.765     4.162198E-5
         2799.848     4.075542E-5
         2802.933     3.984119E-5
         2806.025     3.892140E-5
         2809.117     3.800021E-5
         2812.213     3.721132E-5
         2815.314     3.647442E-5
         2818.417     3.573573E-5
         2821.524     3.497121E-5
         2824.633     3.418036E-5
         2827.749     3.338680E-5
         2830.865     3.263193E-5
         2833.985     3.197872E-5
         2837.109     3.132400E-5
         2840.236     3.067063E-5
         2843.368     3.004766E-5
         2846.501     2.942384E-5
         2849.641     2.879794E-5
         2852.781     2.825694E-5
         2855.924     2.772579E-5
         2859.074     2.719289E-5
         2862.226     2.663274E-5
         2865.381     2.606038E-5
          2868.54     2.548670E-5
         2871.701     2.497766E-5
         2874.866     2.452367E-5
         2878.036     2.406867E-5
         2881.208     2.360323E-5
         2884.385     2.312133E-5
         2887.563     2.263862E-5
         2890.748     2.218045E-5
         2893.935     2.180656E-5
         2897.123     2.143206E-5
         2900.317     2.104705E-5
         2903.515     2.057569E-5
         2906.715     2.010530E-5
          2909.92     1.963580E-5
         2913.126     1.927594E-5
         2916.338     1.891935E-5
         2919.552     1.856350E-5
         2922.773     1.816523E-5
         2925.993     1.776127E-5
         2929.217     1.735813E-5
         2932.448     1.701146E-5
         2935.679     1.668371E-5
         2938.916     1.635649E-5
         2942.155     1.602178E-5
         2945.399     1.568367E-5
         2948.646     1.534629E-5
         2951.895     1.504544E-5
         2955.151     1.477044E-5
         2958.407     1.449631E-5
         2961.668     1.421640E-5
         2964.933     1.393116E-5
           2968.2     1.364669E-5
         2971.474     1.338460E-5
         2974.748     1.315016E-5
         2978.027     1.291615E-5
          2981.31     1.267772E-5
         2984.595     1.243252E-5
         2987.887     1.218769E-5
         2991.179     1.194804E-5
         2994.477     1.171665E-5
         2997.778     1.148583E-5
         3001.083     1.125950E-5
         3004.391     1.104184E-5
         3007.702     1.082483E-5
         3011.019     1.061931E-5
         3014.337     1.043964E-5
         3017.658     1.026044E-5
         3020.987     1.007787E-5
         3024.317     9.887308E-6
         3027.651     9.697235E-6
         3030.987     9.518392E-6
         3034.328     9.365273E-6
         3037.673     9.212543E-6
         3041.022     9.052868E-6
         3044.375     8.876958E-6
         3047.731     8.701537E-6
         3051.089     8.534401E-6
         3054.454     8.383653E-6
          3057.82     8.233455E-6
         3061.191     8.087815E-6
         3064.565     7.950261E-6
         3067.944     7.813083E-6
         3071.326     7.671635E-6
          3074.71     7.523447E-6
           3078.1     7.375623E-6
         3081.495     7.248949E-6
          3084.89     7.149149E-6
         3088.292     7.049520E-6
         3091.696     6.932642E-6
         3095.102     6.798406E-6
         3098.516     6.664427E-6
          3101.93     6.566377E-6
         3105.351     6.495290E-6
         3108.773     6.423916E-6
           3112.2     6.329298E-6
         3115.631     6.221428E-6
         3119.064     6.113080E-6
         3122.504     6.030247E-6
         3125.945     5.956882E-6
         3129.391     5.883105E-6
         3132.841     5.808920E-6
         3136.294     5.734353E-6
         3139.752     5.659413E-6
         3143.211     5.595495E-6
         3146.678     5.532074E-6
         3150.145     5.468909E-6
         3153.618     5.417101E-6
         3157.095     5.365032E-6
         3160.573     5.308658E-6
         3164.059     5.231243E-6
         3167.546     5.153527E-6
         3171.039     5.079040E-6
         3174.533     5.012993E-6
         3178.031     4.946621E-6
         3181.536     4.885390E-6
         3185.044     4.830994E-6
         3188.555     4.776324E-6
         3192.068     4.721383E-6
         3195.587     4.666117E-6
          3199.11     4.610575E-6
         3202.637     4.554755E-6
         3206.167     4.498660E-6
           3209.7     4.442310E-6
         3213.239     4.385704E-6
         3216.781     4.328821E-6
         3220.327     4.274042E-6
         3223.877     4.242555E-6
         3227.431     4.210900E-6
         3230.989     4.171811E-6
         3234.549     4.113620E-6
         3238.115     4.055108E-6
         3241.685     4.008786E-6
         3245.259     3.976224E-6
         3248.836     3.943492E-6
         3252.418     3.892600E-6
         3256.003     3.832769E-6
         3259.591     3.772672E-6
         3263.186     3.724123E-6
         3266.781     3.676911E-6
         3270.383     3.630876E-6
         3273.988     3.596754E-6
         3277.596     3.562471E-6
         3281.209     3.527982E-6
         3284.826     3.493294E-6
         3288.449     3.458410E-6
         3292.073     3.415557E-6
           3295.7     3.366614E-6
         3299.335     3.317376E-6
          3302.97     3.279258E-6
         3306.614     3.243450E-6
         3310.257     3.208478E-6
         3313.906     3.186304E-6
         3317.559     3.164012E-6
         3321.215     3.136943E-6
         3324.878     3.100293E-6
         3328.542     3.063496E-6
         3332.211     3.026515E-6
         3335.885     2.989361E-6
          3339.56     2.952038E-6
         3343.244     2.927090E-6
         3346.927     2.903750E-6
         3350.619     2.875435E-6
         3354.311     2.823001E-6
         3358.007     2.770302E-6
          3361.71     2.737409E-6
         3365.415     2.727869E-6
         3369.126     2.718260E-6
         3372.839     2.686252E-6
         3376.557     2.647159E-6
         3380.279     2.610079E-6
         3384.004     2.600145E-6
         3387.736     2.590140E-6
         3391.469     2.562563E-6
         3395.208     2.507739E-6
         3398.953     2.452607E-6
         3402.698     2.418848E-6
         3406.449     2.393307E-6
         3410.204     2.367628E-6
         3413.964     2.341821E-6
         3417.727     2.315878E-6
         3421.493     2.289823E-6
         3425.265     2.263639E-6
         3429.043     2.237302E-6
         3432.821     2.210876E-6
         3436.606     2.184304E-6
         3440.394     2.157589E-6
         3444.185     2.130755E-6
         3447.984     2.103749E-6
         3451.783     2.083952E-6
         3455.588     2.072352E-6
         3459.398     2.060681E-6
         3463.211     2.035705E-6
         3467.029     2.008102E-6
          3470.85     1.980371E-6
         3474.678     1.952491E-6
         3478.506     1.924487E-6
         3482.339     1.906095E-6
          3486.18     1.893838E-6
         3490.023     1.881516E-6
         3493.871     1.869131E-6
          3497.72     1.856678E-6
         3501.576     1.837528E-6
         3505.437     1.808672E-6
         3509.301     1.779655E-6
          3513.17     1.763920E-6
         3517.041     1.751073E-6
         3520.918     1.738144E-6
         3524.799     1.725145E-6
         3528.685     1.712069E-6
         3532.575     1.698948E-6
         3536.468     1.685773E-6
         3540.368     1.670923E-6
         3544.269     1.640795E-6
         3548.176     1.610484E-6
         3552.088     1.589036E-6
         3556.004     1.575381E-6
         3559.924     1.561644E-6
         3563.846     1.547858E-6
         3567.777     1.533977E-6
         3571.708     1.520027E-6
         3575.644     1.505999E-6
         3579.588     1.491872E-6
         3583.534     1.477691E-6
         3587.484     1.463428E-6
         3591.439     1.449081E-6
         3595.396     1.434659E-6
          3599.36     1.420143E-6
         3603.328     1.405559E-6
         3607.301     1.390891E-6
         3611.277     1.376132E-6
         3615.256     1.361283E-6
         3619.242     1.346339E-6
         3623.234     1.331329E-6
         3627.226     1.316251E-6
         3631.223     1.301078E-6
         3635.228     1.285792E-6
         3639.237     1.270415E-6
         3643.247     1.254963E-6
         3647.261     1.239420E-6
         3651.284     1.229624E-6
         3655.307     1.232290E-6
         3659.335     1.234963E-6
         3663.371     1.206741E-6
         3667.408     1.172274E-6
         3671.453     1.150954E-6
         3675.498     1.153458E-6
         3679.552     1.155970E-6
         3683.606     1.141775E-6
         3687.665     1.125413E-6
         3691.732     1.108938E-6
           3695.8     1.092384E-6
         3699.876     1.075715E-6
         3703.953     1.058965E-6
         3708.039     1.042100E-6
         3712.124     1.035149E-6
         3716.215     1.037413E-6
         3720.313     1.038203E-6
         3724.413     1.021061E-6
         3728.521     1.003800E-6
         3732.629     9.989614E-7
         3736.746     1.001152E-6
         3740.863     9.992229E-7
         3744.985     9.816767E-7
         3749.116     9.640103E-7
         3753.247     9.618730E-7
         3757.386     9.639865E-7
         3761.526     9.587256E-7
         3765.675     9.407364E-7
         3769.824     9.226612E-7
         3773.978     9.044914E-7
         3778.141     8.861971E-7
         3782.304     8.790597E-7
         3786.473     8.809823E-7
         3790.648     8.797308E-7
         3794.824     8.611119E-7
          3799.01     8.423665E-7
         3803.196     8.393192E-7
         3807.389     8.411566E-7
         3811.586     8.351299E-7
          3815.79     8.160571E-7
         3819.994     7.968921E-7
         3824.203     7.985872E-7
         3828.419     8.003151E-7
          3832.64     7.888149E-7
         3836.865     7.692956E-7
         3841.095     7.551774E-7
         3845.331     7.568118E-7
         3849.568     7.584484E-7
          3853.81     7.600793E-7
         3858.058     7.617135E-7
         3862.312     7.515824E-7
         3866.572     7.314633E-7
         3870.832     7.155032E-7
         3875.099     7.170310E-7
         3879.369     7.185613E-7
         3883.646     7.013356E-7
         3887.927     6.807564E-7
         3892.213     6.714923E-7
         3896.504     6.729153E-7
           3900.8     6.743398E-7
           3905.1     6.757592E-7
         3909.403     6.771810E-7
         3913.712     6.592189E-7
         3918.027     6.380281E-7
         3922.346     6.290132E-7
          3926.67     6.303177E-7
         3930.999     6.316247E-7
         3935.333     6.329329E-7
         3939.669     6.342435E-7
         3944.012     6.142932E-7
          3948.36     5.924735E-7
         3952.712     5.849589E-7
          3957.07     5.861515E-7
         3961.432     5.873407E-7
         3965.799     5.885203E-7
         3970.169     5.887949E-7
         3974.546     5.664652E-7
         3978.927     5.440173E-7
         3983.314     5.393162E-7
         3987.705     5.403878E-7
         3992.101     5.414536E-7
           3996.5     5.425125E-7
         4000.906     5.433333E-7
         4005.316     5.432241E-7
         4009.732     5.431141E-7
         4014.152     5.204484E-7
         4018.577     4.963085E-7
         4023.008     4.884693E-7
          4027.44     4.883495E-7
          4031.88     4.882254E-7
         4036.325     4.880955E-7
         4040.775     4.879633E-7
         4045.229     4.878232E-7
         4049.689     4.876825E-7
         4054.153     4.650352E-7
          4058.62     4.407005E-7
         4063.094     4.330877E-7
         4067.574     4.329446E-7
         4072.058     4.327973E-7
         4076.547     4.326449E-7
         4081.041     4.324902E-7
         4085.538     4.323292E-7
         4090.042     4.321676E-7
         4094.548     4.320039E-7
         4099.064     4.318394E-7
         4103.583     4.123303E-7
         4108.107     3.877590E-7
         4112.636     3.773904E-7
         4117.165     3.772314E-7
         4121.706     3.770672E-7
          4126.25     3.768953E-7
         4130.799     3.767225E-7
         4135.353     3.765479E-7
         4139.911     3.763730E-7
         4144.473     3.761964E-7
          4149.04     3.760194E-7
         4153.616     3.564192E-7
         4158.195     3.316659E-7
         4162.779     3.218148E-7
         4167.366     3.216502E-7
         4171.962     3.214826E-7
         4176.559     3.213113E-7
         4181.163     3.211393E-7
         4185.772     3.209664E-7
         4190.385     3.207927E-7
         4195.006     3.206134E-7
         4199.629     3.204338E-7
         4204.261     3.207526E-7
         4208.894     3.211151E-7
         4213.531     3.214774E-7
         4218.178     3.218406E-7
         4222.826     3.070240E-7
         4227.484     2.823259E-7
         4232.142     2.690980E-7
          4236.81     2.693972E-7
         4241.478     2.696952E-7
         4246.151     2.699906E-7
         4250.835     2.702865E-7
         4255.519     2.705822E-7
         4260.212     2.708784E-7
         4264.907     2.711702E-7
         4269.606     2.714625E-7
         4274.315     2.717551E-7
         4279.025     2.720479E-7
         4283.744     2.723377E-7
         4288.464     2.726267E-7
         4293.194     2.729159E-7
         4297.925     2.732050E-7
         4302.661     2.589388E-7
         4307.406     2.332247E-7
         4312.152     2.192511E-7
         4316.909     2.194800E-7
         4321.665     2.197089E-7
         4326.432     2.199381E-7
         4331.199     2.201673E-7
         4335.971     2.203965E-7
         4340.753     2.206256E-7
         4345.537     2.208518E-7
          4350.33     2.210783E-7
         4355.123     2.213016E-7
         4359.926     2.215255E-7
          4364.73     2.217522E-7
          4369.54     2.219791E-7
         4374.359     2.222036E-7
         4379.179     2.224277E-7
         4384.009     2.226521E-7
          4388.84     2.228766E-7
          4393.68     2.230988E-7
         4398.521     2.233201E-7
         4403.368     2.047205E-7
         4408.225     1.777560E-7
         4413.082     1.679940E-7
          4417.95     1.681606E-7
         4422.817     1.683272E-7
         4427.696     1.684942E-7
         4432.574     1.686598E-7
         4437.458     1.688242E-7
         4442.353     1.689901E-7
         4447.248     1.691573E-7
         4452.153     1.693236E-7
         4457.059     1.694885E-7
          4461.97     1.696535E-7
         4466.891     1.698188E-7
         4471.813     1.699841E-7
         4476.745     1.701496E-7
         4481.678     1.703153E-7
         4486.618     1.704811E-7
         4491.564     1.706470E-7
         4496.514     1.708129E-7
         4501.473     1.711840E-7
         4506.433     1.720401E-7
         4511.401     1.728970E-7
         4516.375     1.737533E-7
         4521.355     1.746119E-7
         4526.337     1.754724E-7
         4531.325     1.763335E-7
          4536.32     1.771944E-7
         4541.321     1.780564E-7
         4546.328     1.789194E-7
         4551.339     1.717577E-7
         4556.357     1.423724E-7
          4561.38     1.210138E-7
         4566.406     1.215919E-7
          4571.44     1.221711E-7
         4576.479     1.227510E-7
         4581.527     1.233320E-7
         4586.575     1.239132E-7
         4591.632     1.244954E-7
         4596.691     1.250781E-7
         4601.758     1.256619E-7
         4606.832     1.262465E-7
          4611.91     1.268318E-7
         4616.994     1.274179E-7
         4622.084     1.280040E-7
          4627.18     1.285897E-7
         4632.278     1.291767E-7
         4637.385     1.297659E-7
         4642.497     1.303559E-7
         4647.615     1.309466E-7
         4652.738     1.315381E-7
         4657.868     1.321304E-7
         4663.002     1.327222E-7
         4668.141     1.333137E-7
         4673.287     1.339076E-7
         4678.438     1.345031E-7
         4683.596     1.350993E-7
         4688.759     1.356963E-7
         4693.928     1.362924E-7
           4699.1     1.368885E-7
         4704.281     1.374875E-7
         4709.467     1.380876E-7
         4714.658     1.386866E-7
         4719.856     1.392863E-7
         4725.059     1.398887E-7
         4730.268     1.404918E-7
          4735.48     1.410934E-7
         4740.701     1.416965E-7
         4745.927     1.423021E-7
         4751.159     1.429081E-7
         4756.396     1.435131E-7
          4761.64     1.441195E-7
         4766.889     1.447284E-7
         4772.142     1.453378E-7
         4777.402     1.459483E-7
         4782.669     1.465584E-7
         4787.941     1.471682E-7
          4793.22     1.477802E-7
         4798.504     1.483939E-7
         4803.791     1.490081E-7
         4809.087     1.496234E-7
         4814.389     1.172704E-7
         4819.696     7.772051E-8
         4825.009     7.573488E-8
         4830.328     7.604415E-8
         4835.653     7.635382E-8
         4840.981     7.666374E-8
         4846.318     7.697430E-8
         4851.661     7.728483E-8
         4857.009     7.759485E-8
         4862.364     7.790587E-8
         4867.724     7.821806E-8
          4873.09     7.853060E-8
         4878.457     7.884323E-8
         4883.838     7.915676E-8
         4889.222     7.947057E-8
         4894.612     7.978475E-8
         4900.008     8.009936E-8
         4905.409     8.041565E-8
         4910.814     8.073205E-8
         4916.228     8.104791E-8
         4921.648     8.136420E-8
         4927.074     8.168087E-8
         4932.505     8.199796E-8
          4937.94     8.231527E-8
         4943.386     8.263420E-8
         4948.833     8.295381E-8
         4954.289     8.327395E-8
          4959.75     8.359450E-8
         4965.216     8.391401E-8
         4970.692     8.423434E-8
         4976.169     8.455606E-8
         4981.658     8.487854E-8
         4987.146     8.520105E-8
         4992.642     8.552401E-8
         4998.148     8.584773E-8
         5003.656     8.621922E-8
         5009.174     8.661578E-8
         5014.694     8.701252E-8
         5020.219     8.740987E-8
         5025.756     8.780953E-8
         5031.294     8.820901E-8
         5036.843     8.860836E-8
         5042.394     8.900848E-8
         5047.955     8.941034E-8
         5053.517     8.981141E-8
         5059.085     9.021246E-8
         5064.665     9.061573E-8
         5070.246     9.101944E-8
         5075.838     9.142408E-8
         5081.431     9.182846E-8
         5087.036     9.223265E-8
         5092.641     9.263772E-8
         5098.252     9.304419E-8
         5103.875     9.345160E-8
         5109.499     9.385919E-8
         5115.134     9.426775E-8
         5120.771     9.467649E-8
         5126.418     9.508614E-8
         5132.067     9.549540E-8
         5137.722     9.590423E-8
         5143.389     9.631493E-8
         5149.056     9.672646E-8
         5154.735     9.713902E-8
         5160.415     9.755172E-8
         5166.107     9.796535E-8
         5171.799     9.837913E-8
         5177.498     9.879356E-8
         5183.208     9.920799E-8
         5188.919     9.962182E-8
         5194.643     1.000380E-7
         5200.366     1.004545E-7
         5206.102     1.008704E-7
         5211.838     1.012871E-7
         5217.581     1.017054E-7
         5223.336     1.021238E-7
         5229.091     1.025416E-7
         5234.859     1.029604E-7
         5240.627     1.033793E-7
         5246.407     1.037991E-7
         5252.188     1.042198E-7
         5257.975     1.046422E-7
         5263.774     1.050632E-7
         5269.574     1.054830E-7
         5275.383     1.059053E-7
         5281.199     1.063284E-7
         5287.018     1.067518E-7
          5292.85     1.071754E-7
         5298.682     1.075980E-7
         5304.523     1.080214E-7
         5310.371     1.084455E-7
         5316.228     1.088722E-7
         5322.085     1.092976E-7
          5327.95     1.097211E-7
         5333.826     1.101468E-7
         5339.703     1.105733E-7
          5345.59     1.110006E-7
         5351.483     1.114280E-7
         5357.385     1.118546E-7
         5363.289     1.122813E-7
         5369.198     1.127086E-7
         5375.117     5.524167E-8
         5381.042     1.183860E-8
         5386.978     7.953779E-8
         5392.914     8.108260E-8
         5398.858     1.311102E-8
         5404.807              0.
         5410.766              0.
          5416.73              0.
         5422.702              0.
          5428.68              0.
         5434.665              0.
         5440.656              0.
         5446.651              0.
         5452.655              0.
         5458.666              0.
         5464.684              0.
         5470.708              0.
         5476.739              0.
         5482.777              0.
         5488.818              0.
         5494.869              0.
         5500.926              0.
         5506.991              0.
         5513.062              0.
         5519.139              0.
         5525.221              0.
         5531.312              0.
          5537.41              0.
         5543.514              0.
         5549.625              0.
         5555.743              0.
         5561.868              0.
         5567.996              0.
         5574.134              0.
         5580.279              0.
         5586.431              0.
          5592.59              0.
         5598.755              0.
         5604.927              0.
         5611.103              0.
         5617.289              0.
         5623.481              0.
         5629.681              0.
         5635.887              0.
           5642.1              0.
         5648.316              0.
         5654.543              0.
         5660.777              0.
         5667.018              0.
         5673.265              0.
         5679.519              0.
          5685.78              0.
         5692.045              0.
          5698.32              0.
         5704.602              0.
         5710.891              0.
         5717.187              0.
         5723.489              0.
         5729.799              0.
         5736.112              0.
         5742.436              0.
         5748.766              0.
         5755.104              0.
         5761.448              0.
           5767.8              0.
         5774.155              0.
         5780.521              0.
         5786.893              0.
         5793.272              0.
         5799.659              0.
         5806.053              0.
         5812.453              0.
         5818.858              0.
         5825.272              0.
         5831.694              0.
         5838.123              0.
         5844.559              0.
         5851.002              0.
         5857.453              0.
         5863.907              0.
         5870.368              0.
         5876.843              0.
         5883.321              0.
         5889.807              0.
           5896.3              0.
           5902.8              0.
         5909.304              0.
         5915.819              0.
          5922.34              0.
         5928.869              0.
         5935.405              0.
         5941.945              0.
         5948.492              0.
         5955.053              0.
         5961.618              0.
          5968.19              0.
         5974.767              0.
         5981.356              0.
         5987.947              0.
         5994.548              0.
         6001.157              0.
         6007.769              0.
         6014.396              0.
         6021.022              0.
         6027.663              0.
         6034.308              0.
         6040.954              0.
         6047.617              0.
          6054.28              0.
         6060.958              0.
         6067.636              0.
         6074.329              0.
         6081.021              0.
         6087.722              0.
         6094.437              0.
         6101.152              0.
         6107.878              0.
         6114.611              0.
         6121.355              0.
           6128.1              0.
         6134.853              0.
         6141.616              0.
         6148.386              0.
         6155.167              0.
          6161.95              0.
         6168.746              0.
          6175.54              0.
         6182.348              0.
         6189.163              0.
         6195.986              0.
          6202.82              0.
         6209.655              0.
         6216.497              0.
          6223.35              0.
         6230.211              0.
         6237.083              0.
         6243.955              0.
         6250.838              0.
         6257.729              0.
         6264.624              0.
          6271.53              0.
         6278.444              0.
         6285.366              0.
         6292.294              0.
         6299.231              0.
         6306.176              0.
         6313.124              0.
         6320.084              0.
         6327.051              0.
         6334.026              0.
         6341.009              0.
         6347.999              0.
         6354.994              0.
            6362.              0.
         6369.013              0.
         6376.034              0.
         6383.063              0.
           6390.1              0.
         6397.145              0.
         6404.193              0.
         6411.253              0.
         6418.321              0.
         6425.397              0.
          6432.48              0.
         6439.571              0.
          6446.67              0.
         6453.774              0.
         6460.889              0.
         6468.011              0.
         6475.142              0.
          6482.28              0.
         6489.426              0.
         6496.576              0.
         6503.738              0.
         6510.908              0.
         6518.085              0.
         6525.271              0.
         6532.465              0.
         6539.666              0.
         6546.872              0.
         6554.089              0.
         6561.314              0.
         6568.548              0.
         6575.789              0.
         6583.038              0.
         6590.295              0.
         6597.557              0.
          6604.83              0.
         6612.111              0.
           6619.4              0.
         6626.698              0.
         6634.003              0.
         6641.316              0.
         6648.634              0.
         6655.964              0.
         6663.301              0.
         6670.647              0.
         6678.001              0.
         6685.363              0.
         6692.729              0.
         6700.107              0.
         6707.494              0.
         6714.888              0.
         6722.291              0.
         6729.701              0.
          6737.12              0.
         6744.543              0.
         6751.979              0.
         6759.422              0.
         6766.874              0.
         6774.333              0.
         6781.802              0.
         6789.278              0.
         6796.759              0.
         6804.251              0.
         6811.752              0.
         6819.262              0.
          6826.78              0.
         6834.306              0.
         6841.836              0.
         6849.378              0.
         6856.929              0.
         6864.488              0.
         6872.056              0.
         6879.632              0.
         6887.216              0.
         6894.805              0.
         6902.405              0.
         6910.015              0.
         6917.632              0.
         6925.258              0.
         6932.893              0.
         6940.536              0.
         6948.183              0.
         6955.839              0.
         6963.511              0.
         6971.188              0.
         6978.873              0.
         6986.566              0.
         6994.261     1.644240E-8
         7001.975     3.848049E-8
         7009.694     3.832264E-8
         7017.422     3.816428E-8
         7025.158     3.800681E-8
         7032.902     3.785029E-8
         7040.652     3.769468E-8
          7048.41     3.753860E-8
         7056.184     3.738344E-8
         7063.962     3.722889E-8
          7071.75     3.707468E-8
         7079.542     3.692080E-8
          7087.35     3.676714E-8
          7095.16     3.661451E-8
         7102.981     3.650870E-8
         7110.812     3.647781E-8
         7118.647     3.644638E-8
         7126.499     3.641460E-8
         7134.351     3.638281E-8
          7142.22     3.635063E-8
         7150.089     3.631750E-8
         7157.968     3.628470E-8
         7165.863     3.625149E-8
         7173.758     3.621831E-8
         7181.671     3.618488E-8
         7189.584     3.615025E-8
         7197.514     3.611611E-8
         7205.444     3.606700E-8
         7213.384     3.601093E-8
          7221.34     3.595471E-8
         7229.297     3.589892E-8
         7237.271     3.584201E-8
         7245.245     3.578536E-8
         7253.236     3.572861E-8
         7261.228     3.567155E-8
         7269.229     3.561428E-8
         7277.243     3.555745E-8
         7285.265     3.549986E-8
           7293.3     3.544200E-8
         7301.336     3.535331E-8
         7309.381     3.510895E-8
         7317.439     3.486634E-8
         7325.506     3.462413E-8
         7333.586     3.438283E-8
         7341.667     3.414319E-8
         7349.764     3.390418E-8
         7357.863     3.366641E-8
          7365.97     3.343022E-8
          7374.09     3.319463E-8
         7382.219     3.295976E-8
         7390.362     3.272625E-8
         7398.505     3.249403E-8
         7406.661     3.247949E-8
         7414.826     3.251257E-8
         7422.996     3.254471E-8
         7431.184     3.257660E-8
         7439.372     3.260841E-8
         7447.573     3.263852E-8
         7455.783     3.266831E-8
         7464.002     3.269750E-8
         7472.231     3.272585E-8
         7480.464     3.275329E-8
          7488.71     3.277992E-8
         7496.966     3.280648E-8
         7505.231     3.268754E-8
         7513.505     3.248497E-8
         7521.788     3.228308E-8
         7530.076     3.208190E-8
         7538.377     3.188131E-8
         7546.688     3.168131E-8
         7555.007     3.148198E-8
         7563.335     3.128325E-8
         7571.673     3.108510E-8
         7580.021     3.088768E-8
         7588.373     3.069104E-8
         7596.738     3.049494E-8
         7605.113     3.041861E-8
         7613.497     3.041778E-8
          7621.89     3.041617E-8
         7630.292     3.041384E-8
         7638.704     3.041071E-8
         7647.121     3.040680E-8
         7655.551     3.040218E-8
         7663.991     3.039679E-8
         7672.439     3.039064E-8
         7680.897     3.038375E-8
         7689.365     3.037604E-8
         7697.838     3.036768E-8
         7706.324     3.084217E-8
         7714.819     3.147714E-8
         7723.324     3.210645E-8
         7731.838     3.273005E-8
         7740.362     3.334805E-8
         7748.895     3.396037E-8
         7757.434     3.456683E-8
         7765.985     3.516791E-8
         7774.546     3.576335E-8
         7783.117     3.635322E-8
         7791.697     3.693745E-8
         7800.287     3.750017E-8
         7808.886     3.759746E-8
          7817.49     3.769276E-8
         7826.108     3.778639E-8
         7834.736     3.787822E-8
         7843.373     3.796822E-8
          7852.02     3.805644E-8
         7860.676     3.814282E-8
         7869.337     3.822741E-8
         7878.013     3.831018E-8
         7886.697     3.839125E-8
         7895.392     3.847054E-8
         7904.096     3.862510E-8
         7912.809     3.886359E-8
         7921.532     3.909897E-8
         7930.261     3.933117E-8
         7939.003     3.956040E-8
         7947.755     3.978665E-8
         7956.517     4.000982E-8
         7965.288     4.022998E-8
         7974.069     4.044711E-8
          7982.86     4.066120E-8
         7991.656     4.087218E-8
         8000.466     4.104922E-8
         8009.286     4.066906E-8
         8018.115     4.029077E-8
         8026.954     3.991431E-8
         8035.803     3.953964E-8
         8044.658     3.916691E-8
         8053.526     3.879580E-8
         8062.404     3.842651E-8
         8071.292     3.805902E-8
          8080.19     3.769333E-8
         8089.098     3.732939E-8
         8098.016     3.696731E-8
         8106.938     3.724654E-8
         8115.875     3.770115E-8
         8124.822     3.814672E-8
         8133.779     3.858333E-8
         8142.746     3.901102E-8
         8151.723     3.942975E-8
         8160.709     3.983958E-8
         8169.701     4.024027E-8
         8178.708     4.063227E-8
         8187.724     4.101541E-8
          8196.75     4.138972E-8
         8205.786     4.148409E-8
         8214.832     4.142215E-8
         8223.884     4.135735E-8
          8232.95     4.128963E-8
         8242.026     4.121907E-8
         8251.112     4.114566E-8
         8260.208     4.106936E-8
         8269.314     4.099022E-8
         8278.431     4.090825E-8
         8287.552     4.082350E-8
         8296.688     4.073586E-8
         8305.835     4.083402E-8
         8314.991     4.103286E-8
         8324.153     4.122439E-8
         8333.334     4.140890E-8
         8342.521     4.158617E-8
         8351.713     4.179260E-8
          8360.92     4.215293E-8
         8370.138     4.250876E-8
         8379.365     4.286005E-8
         8388.603     4.320674E-8
          8397.85     4.354872E-8
         8407.104     4.369895E-8
         8416.371     4.378926E-8
         8425.649     4.387634E-8
         8434.934     4.396016E-8
         8444.236     4.404076E-8
         8453.546     4.411798E-8
         8462.865     4.419186E-8
         8472.189     4.426235E-8
         8481.525     4.432937E-8
          8490.88     4.439300E-8
          8500.24     4.446549E-8
         8509.611     4.500347E-8
         8518.987     4.553366E-8
         8528.384     4.605675E-8
          8537.78     4.657158E-8
         8547.188     4.707857E-8
         8556.615     4.757820E-8
         8566.043     4.806923E-8
         8575.486     4.855240E-8
          8584.94     4.902736E-8
         8594.409     4.949417E-8
         8603.879     4.964668E-8
         8613.359     4.935509E-8
         8622.854     4.906164E-8
          8632.36     4.876649E-8
         8641.882     4.846952E-8
         8651.403     4.816990E-8
         8660.937     4.786130E-8
         8670.484     4.755096E-8
         8680.043     4.723907E-8
         8689.611     4.692558E-8
         8699.191     4.661045E-8
         8708.781     4.600951E-8
         8718.382     4.538406E-8
         8727.988     4.476084E-8
          8737.61     4.413924E-8
         8747.242     4.351966E-8
         8756.886     4.290207E-8
         8766.539     4.228663E-8
         8776.203     4.167330E-8
         8785.879     4.106208E-8
          8795.56     4.045340E-8
         8805.256     4.016660E-8
         8814.963     4.014662E-8
         8824.681     4.012120E-8
         8834.408     4.009037E-8
         8844.147     4.005404E-8
         8853.893     4.001214E-8
         8863.653     3.996463E-8
         8873.425     3.991146E-8
         8883.207     3.985254E-8
            8893.     3.978787E-8
         8902.804     3.963461E-8
         8912.618     3.927155E-8
         8922.438     3.890715E-8
         8932.274     3.854108E-8
         8942.122     3.817343E-8
         8951.979     3.780297E-8
         8961.849     3.742574E-8
         8971.728     3.704716E-8
         8981.618     3.666718E-8
         8991.515     3.628597E-8
         9001.427     3.594597E-8
         9011.351     3.585691E-8
         9021.284     3.576260E-8
         9031.229     3.566304E-8
         9041.186     3.555811E-8
         9051.147     3.544790E-8
         9061.126     3.533219E-8
         9071.115     3.521103E-8
         9081.115     3.508433E-8
         9091.126     3.495206E-8
         9101.148     3.481182E-8
         9111.182     3.464789E-8
         9121.221     3.447845E-8
         9131.276     3.430380E-8
         9141.343     3.412350E-8
          9151.42     3.393797E-8
         9161.509     3.374666E-8
         9171.608     3.355004E-8
         9181.719     3.334761E-8
         9191.836     3.313981E-8
          9201.97     3.282782E-8
         9212.113     3.210987E-8
          9222.27     3.139692E-8
         9232.436     3.068950E-8
         9242.613     2.998763E-8
         9252.798     2.929049E-8
         9262.998     2.859523E-8
          9273.21     2.790598E-8
         9283.433     2.722283E-8
         9293.667     2.654573E-8
         9303.912     2.611223E-8
         9314.169     2.605791E-8
         9324.432     2.599310E-8
         9334.711     2.591764E-8
         9345.002     2.583150E-8
         9355.304     2.573458E-8
         9365.617     2.562662E-8
         9375.941     2.550770E-8
         9386.278     2.537778E-8
          9396.62     2.523674E-8
         9406.979     2.470554E-8
          9417.35     2.399500E-8
         9427.731     2.329198E-8
         9438.124     2.259642E-8
         9448.529     2.190856E-8
          9458.94     2.122871E-8
         9469.368     2.055633E-8
         9479.807     1.989187E-8
         9490.258     1.923533E-8
          9500.72     1.862172E-8
         9511.193     1.848134E-8
         9521.679     1.833681E-8
          9532.17     1.818822E-8
         9542.679     1.803543E-8
         9553.198     1.787854E-8
         9563.729     1.771754E-8
         9574.272     1.755247E-8
         9584.828     1.738331E-8
         9595.395     1.721007E-8
         9605.967     1.701558E-8
         9616.557     1.680446E-8
         9627.158     1.659038E-8
         9637.771     1.637340E-8
         9648.396     1.615361E-8
         9659.032     1.593079E-8
         9669.681     1.570507E-8
         9680.335     1.547658E-8
         9691.007     1.524511E-8
          9701.69     1.500839E-8
         9712.386     1.475646E-8
         9723.093     1.450234E-8
         9733.812     1.424603E-8
         9744.536     1.398769E-8
         9755.279     1.372324E-8
         9766.033     1.345293E-8
           9776.8     1.318072E-8
         9787.577     1.290667E-8
         9798.367     1.263075E-8
         9809.169     1.238543E-8
         9819.978     1.214245E-8
         9830.803     1.189546E-8
         9841.641     1.164477E-8
          9852.49     1.139029E-8
         9863.352     1.113214E-8
         9874.225     1.087029E-8
          9885.11     1.060479E-8
         9896.003     1.033580E-8
         9906.912     9.891759E-9
         9917.828     9.360187E-9
         9928.767     8.842894E-9
         9939.713     8.340412E-9
          9950.67     7.852600E-9
         9961.634     7.379597E-9
          9972.61     6.921120E-9
          9983.61     6.476598E-9
         9994.616     6.046765E-9
         10005.63     5.768461E-9
         10016.66     5.625651E-9
         10027.71     5.483808E-9
         10038.76     5.343217E-9
         10049.82     5.203730E-9
          10060.9     5.065238E-9
         10071.99     4.927997E-9
          10083.1     4.791751E-9
         10094.21     4.656781E-9
         10105.34     3.654540E-8
         10116.47     2.206134E-8
         10127.62     3.303728E-9
         10138.79    5.073768E-10
         10149.96     8.105018E-9
         10161.16     2.618083E-8
         10172.35     1.253279E-8
         10183.56     3.676095E-9
         10194.79     6.950946E-9
         10206.03     6.139870E-9
         10217.29     3.296560E-9
         10228.54     8.593701E-9
         10239.83    1.599535E-10
         10251.11     1.268901E-8
          10262.4     1.763859E-8
         10273.72     7.758126E-9
         10285.04     2.573365E-9
         10296.39    8.881808E-10
         10307.73     1.811449E-9
          10319.1     1.440488E-8
         10330.47     2.117985E-9
         10341.85     2.007596E-9
         10353.26     1.898473E-9
         10364.67     3.462733E-9
          10376.1     1.971017E-9
         10387.53     1.189781E-9
         10398.99     1.475999E-9
         10410.45     1.619713E-9
         10421.92     6.854722E-9
         10433.41     5.813035E-9
         10444.91     1.075972E-9
         10456.43    9.794207E-10
         10467.95    8.843903E-10
          10479.5     3.794398E-9
         10491.04    7.714456E-10
          10502.6     1.898361E-9
         10514.19     2.370539E-9
         10525.77    2.493215E-10
         10537.38    4.228549E-10
         10548.99    5.561190E-10
         10560.63     3.068119E-9
         10572.26    5.232700E-10
         10583.91    5.071511E-10
         10595.59     1.040089E-9
         10607.26     1.426479E-9
         10618.96     3.440691E-9
         10630.66     1.690226E-9
         10642.38    3.275081E-10
         10654.11    1.705318E-10
         10665.85    3.998761E-10
         10677.62    3.853527E-10
         10689.38     1.067277E-9
         10701.17    3.987673E-10
         10712.96    5.844542E-10
         10724.77    3.293632E-10
          10736.6    1.075020E-10
         10748.43    5.099985E-10
         10760.27    1.560850E-11
         10772.14    9.674116E-10
         10784.01     1.424261E-9
          10795.9    2.969754E-10
         10807.81    6.657158E-10
         10819.72    2.402286E-10
         10831.65     1.475561E-9
         10843.57    2.040405E-10
         10855.53    8.604561E-11
         10867.51    1.362877E-10
         10879.48    1.706088E-10
         10891.48    7.994894E-10
         10903.48    5.389486E-10
          10915.5    2.156475E-10
         10927.52    8.411216E-10
         10939.58    1.546723E-10
         10951.64    2.749827E-10
         10963.71              0.
         10975.79    5.277710E-11
         10987.88    1.470510E-10
           11000.    2.940766E-10
