#  Table wf2f380wsys.tab  Mon 12:21:41 02-Jun-97

#      WAVELENGTH      THROUGHPUT
#       angstroms                

            1850.     1.275583E-6
         1851.651     1.077280E-6
         1853.301     8.772486E-7
         1854.956     6.748992E-7
         1856.611     4.708785E-7
         1858.267     2.648942E-7
         1859.925     5.681346E-8
         1861.584     9.838648E-8
         1863.246     1.523092E-7
         1864.909     2.067481E-7
         1866.572     2.616654E-7
         1868.237     3.171033E-7
         1869.904     3.730933E-7
         1871.573     3.928054E-7
         1873.242     4.104328E-7
         1874.913     4.282163E-7
         1876.585     4.461578E-7
          1878.26     4.642715E-7
         1879.937     4.823622E-7
         1881.613     4.305341E-7
         1883.292     3.755009E-7
         1884.973     3.199676E-7
         1886.654     2.639973E-7
         1888.338     2.075196E-7
         1890.023     1.514715E-7
         1891.709     1.605895E-7
         1893.396     1.697801E-7
         1895.086     1.790484E-7
         1896.775     1.883777E-7
         1898.469     1.977972E-7
         1900.163     2.076442E-7
         1901.857     2.209309E-7
         1903.555     2.343407E-7
         1905.254     2.478576E-7
         1906.953     2.614722E-7
         1908.655     2.752023E-7
         1910.357     2.808857E-7
         1912.061     2.557857E-7
         1913.768     2.304530E-7
         1915.476     2.048994E-7
         1917.184     1.791410E-7
         1918.894     1.531607E-7
         1920.606     1.321925E-7
          1922.32     1.206351E-7
         1924.035     1.089772E-7
         1925.752     9.722434E-8
          1927.47     8.536373E-8
         1929.189     7.340771E-8
          1930.91     6.794237E-8
         1932.634     6.832769E-8
         1934.358     6.871439E-8
         1936.084     6.910223E-8
         1937.811     6.949150E-8
          1939.54     6.988242E-8
          1941.27     8.175778E-8
         1943.003     9.791907E-8
         1944.737     1.142145E-7
          1946.47     1.306234E-7
         1948.207     1.471867E-7
         1949.947     1.638946E-7
         1951.685     1.426453E-7
         1953.427     1.199842E-7
         1955.171     9.712989E-8
         1956.913     7.410938E-8
          1958.66     5.086573E-8
         1960.408     3.190018E-8
         1962.157     2.754510E-8
         1963.908     2.314987E-8
         1965.658     1.872269E-8
         1967.413     1.425265E-8
         1969.169     9.744578E-9
         1970.925     8.872346E-9
         1972.684     1.130800E-8
         1974.444     1.376223E-8
         1976.205     1.623661E-8
         1977.969     1.873413E-8
         1979.734     2.124898E-8
           1981.5     2.848341E-8
         1983.268     3.662066E-8
         1985.037     4.482008E-8
         1986.809     5.309090E-8
         1988.581     6.142359E-8
         1990.355     6.731585E-8
         1992.131     6.317845E-8
         1993.908     5.900519E-8
         1995.688     5.479074E-8
         1997.467     5.054805E-8
          1999.25     4.626395E-8
         2001.034     4.275804E-8
         2002.818     3.981578E-8
         2004.606     3.683835E-8
         2006.396     3.383266E-8
         2008.184     3.080092E-8
         2009.976     2.773533E-8
         2011.769     2.676218E-8
         2013.565     2.580687E-8
         2015.362     2.484153E-8
         2017.158     2.386737E-8
         2018.958     2.288195E-8
          2020.76     2.397005E-8
         2022.563     2.793411E-8
         2024.368     3.193769E-8
         2026.173     3.597555E-8
         2027.982     4.005331E-8
         2029.791     4.416592E-8
         2031.602     4.676026E-8
         2033.414     4.917166E-8
         2035.228     5.160425E-8
         2037.044     5.405961E-8
         2038.861     5.653487E-8
         2040.681     5.594369E-8
         2042.502     5.015257E-8
         2044.324     4.430952E-8
         2046.147     3.841161E-8
         2047.974     3.245419E-8
           2049.8     2.644457E-8
          2051.63     2.497413E-8
         2053.461     2.405589E-8
         2055.291     2.312968E-8
         2057.125     2.219337E-8
         2058.961     2.124790E-8
         2060.798     2.197824E-8
         2062.637     2.491993E-8
         2064.477     2.788543E-8
         2066.318     3.087640E-8
         2068.164     3.389695E-8
         2070.007     3.691754E-8
         2071.855     3.463402E-8
         2073.704     3.232982E-8
         2075.553     3.000610E-8
         2077.405     2.766154E-8
         2079.259     2.529386E-8
         2081.113     2.460116E-8
         2082.971     2.503561E-8
         2084.829     2.547291E-8
         2086.688     2.591328E-8
          2088.55     2.635710E-8
         2090.414     2.710651E-8
         2092.279     2.892371E-8
         2094.145     3.075494E-8
         2096.014     3.260216E-8
         2097.885     3.446380E-8
         2099.756     3.633890E-8
          2101.63     3.755612E-8
         2103.503     3.867973E-8
         2105.381     3.981277E-8
          2107.26     4.095430E-8
         2109.139     4.210341E-8
         2111.022     4.321539E-8
         2112.906     4.429628E-8
         2114.789     4.538332E-8
         2116.677     4.647939E-8
         2118.564     4.758236E-8
         2120.455     4.799368E-8
         2122.348     4.619095E-8
         2124.241     4.437532E-8
         2126.135     4.254512E-8
         2128.033     4.069954E-8
         2129.932     3.883925E-8
         2131.832     3.796823E-8
         2133.734     3.712741E-8
         2135.637     3.628010E-8
         2137.544     3.542505E-8
          2139.45     3.457258E-8
         2141.359     3.211261E-8
          2143.27     2.898082E-8
         2145.182     2.582703E-8
         2147.096     2.264792E-8
         2149.011     1.944704E-8
         2150.929     1.699273E-8
         2152.848     1.534706E-8
         2154.768     1.368966E-8
         2156.692     1.201837E-8
         2158.615     1.033844E-8
         2160.541     9.767621E-9
         2162.469     1.207859E-8
         2164.397     1.440167E-8
          2166.33     1.674428E-8
         2168.263     1.910090E-8
         2170.196     2.131911E-8
         2172.133     2.221594E-8
          2174.07     2.311732E-8
         2176.011     2.402466E-8
         2177.953     2.493729E-8
         2179.895     2.585454E-8
          2181.84     2.541895E-8
         2183.787     2.490280E-8
         2185.735     2.438379E-8
         2187.686     2.386141E-8
         2189.637     2.333621E-8
          2191.59     2.474998E-8
         2193.546     2.661706E-8
         2195.503     2.849326E-8
         2197.462     3.037790E-8
         2199.423     3.227337E-8
         2201.385     3.088331E-8
         2203.348     2.808085E-8
         2205.315     2.522788E-8
         2207.283     2.232625E-8
         2209.252     1.937753E-8
         2211.222     1.739073E-8
         2213.196     1.599405E-8
          2215.17     1.457516E-8
         2217.147     1.313183E-8
         2219.125     1.166499E-8
         2221.104     1.055314E-8
         2223.086     9.723378E-9
         2225.071     8.879843E-9
         2227.055     8.024570E-9
         2229.042     7.154874E-9
         2231.031     8.051369E-9
         2233.021     1.062617E-8
         2235.015     1.324023E-8
         2237.008     1.588731E-8
         2239.003     1.857108E-8
         2241.002     2.039500E-8
         2242.999     2.134164E-8
         2245.002     2.230148E-8
         2247.005     2.327178E-8
         2249.009     2.425374E-8
         2251.016     2.427106E-8
         2253.024     2.332819E-8
         2255.033     2.237131E-8
         2257.046     2.139963E-8
         2259.061     2.041378E-8
         2261.075     1.965279E-8
         2263.092     1.909049E-8
         2265.112     1.851945E-8
         2267.134     1.793996E-8
         2269.156     1.735241E-8
         2271.181     1.680354E-8
         2273.207     1.628140E-8
         2275.234     1.575187E-8
         2277.266     1.521428E-8
         2279.296     1.467034E-8
          2281.33     1.588674E-8
         2283.366     1.805837E-8
         2285.402     2.025229E-8
         2287.441     2.247388E-8
         2289.483     2.472033E-8
         2291.525     2.579454E-8
          2293.57     2.647228E-8
         2295.615     2.715561E-8
         2297.663     2.785411E-8
         2299.715     2.856183E-8
         2301.765     2.919347E-8
          2303.82     2.981870E-8
         2305.876     3.044977E-8
         2307.932     3.108633E-8
         2309.992     3.172921E-8
         2312.051     3.366994E-8
         2314.116     3.564009E-8
          2316.18     3.762903E-8
         2318.246     3.963872E-8
         2320.315     4.090338E-8
         2322.385     3.788027E-8
         2324.457     3.481920E-8
         2326.531     3.172400E-8
         2328.606     2.859236E-8
         2330.685     2.621314E-8
         2332.764     2.542987E-8
         2334.845     2.463670E-8
         2336.927     2.383379E-8
         2339.012     2.302101E-8
         2341.101     2.128475E-8
         2343.188     1.870819E-8
         2345.279     1.610282E-8
         2347.372     1.346725E-8
         2349.467     1.080321E-8
         2351.562     1.236306E-8
         2353.661     1.539995E-8
         2355.759     1.846368E-8
         2357.862     2.156260E-8
         2359.966     2.469254E-8
         2362.071     2.483213E-8
         2364.179     2.492213E-8
         2366.288     2.501204E-8
         2368.398     2.510192E-8
         2370.512     2.565015E-8
         2372.628     2.764452E-8
         2374.744     2.965624E-8
         2376.863     3.168789E-8
         2378.983     3.373723E-8
         2381.105     3.598937E-8
          2383.23     3.843400E-8
         2385.357     4.090050E-8
         2387.485     4.338782E-8
         2389.615     4.589715E-8
         2391.747     4.747677E-8
         2393.881     4.885718E-8
         2396.017     5.024970E-8
         2398.154     5.165258E-8
         2400.293     5.282633E-8
         2402.435     5.248634E-8
          2404.58     5.214170E-8
         2406.724     5.179267E-8
         2408.872     5.143881E-8
         2411.022     5.014557E-8
         2413.171     4.780635E-8
         2415.326     4.544104E-8
         2417.479     4.305842E-8
         2419.637     4.065058E-8
         2421.796     4.323216E-8
         2423.957     4.685000E-8
          2426.12     5.049948E-8
         2428.284     5.417615E-8
         2430.451     5.648525E-8
         2432.619     5.346159E-8
         2434.789     5.041186E-8
         2436.962     4.733356E-8
         2439.136     4.422902E-8
         2441.312     3.940984E-8
          2443.49     3.343448E-8
          2445.67     2.740650E-8
         2447.853     2.132836E-8
         2450.036     1.535915E-8
         2452.222     1.845463E-8
         2454.409     2.157432E-8
           2456.6     2.472039E-8
         2458.792     2.789050E-8
         2460.985     2.906574E-8
          2463.18     2.776478E-8
         2465.379     2.645220E-8
         2467.579     2.512897E-8
         2469.778     2.379655E-8
         2471.983     2.334193E-8
          2474.19     2.298312E-8
         2476.396     2.262171E-8
         2478.606     2.225663E-8
         2480.817     2.252367E-8
         2483.029     2.388103E-8
         2485.247     2.525003E-8
         2487.462     2.662632E-8
         2489.682     2.801417E-8
         2491.904     2.956895E-8
         2494.125     3.115906E-8
         2496.353     3.276354E-8
         2498.579     3.437749E-8
         2500.808     3.459141E-8
          2503.04     3.231297E-8
         2505.272     3.001837E-8
         2507.509     2.770427E-8
         2509.745     2.537416E-8
         2511.985     2.722678E-8
         2514.225     2.963355E-8
         2516.468     3.205797E-8
         2518.714     3.450114E-8
         2520.962     3.512769E-8
          2523.21     3.329651E-8
         2525.462     3.144988E-8
         2527.715     2.959019E-8
         2529.971     2.771492E-8
         2532.229     2.882461E-8
         2534.486     2.998021E-8
         2536.748     3.114521E-8
          2539.01     3.226564E-8
         2541.277     3.127083E-8
         2543.545     2.862977E-8
         2545.813     2.597983E-8
         2548.084     2.331964E-8
         2550.358     2.123189E-8
         2552.635     2.226776E-8
         2554.911     2.330648E-8
         2557.191     2.434958E-8
         2559.471     2.539504E-8
         2561.755     2.641226E-8
         2564.042     2.742309E-8
         2566.329     2.843682E-8
         2568.619     2.945449E-8
         2570.908     2.971042E-8
         2573.205     2.880098E-8
           2575.5     2.788904E-8
         2577.797     2.697317E-8
         2580.097     2.602878E-8
         2582.399     2.453047E-8
         2584.704     2.302507E-8
          2587.01     2.151392E-8
         2589.318     1.999750E-8
         2591.629     2.078950E-8
          2593.94     2.255536E-8
         2596.254     2.432740E-8
         2598.573     2.610821E-8
         2600.889     2.870108E-8
          2603.21     3.261044E-8
         2605.532     3.653174E-8
         2607.856     4.046778E-8
         2610.185     4.377331E-8
         2612.512     3.954260E-8
         2614.843     3.529023E-8
         2617.177     3.102073E-8
          2619.51     2.673955E-8
         2621.849     2.740214E-8
         2624.188     2.938440E-8
         2626.528     3.137387E-8
         2628.873     3.337195E-8
         2631.217     3.347599E-8
         2633.566     3.181486E-8
         2635.916     3.014689E-8
         2638.267     2.847297E-8
          2640.62     2.708547E-8
         2642.977     2.651329E-8
         2645.334     2.593884E-8
         2647.695     2.536148E-8
         2650.057     2.473837E-8
         2652.422     2.234415E-8
         2654.788     1.994185E-8
         2657.157     1.752829E-8
         2659.526     1.510801E-8
         2661.899     1.488708E-8
         2664.275     1.521852E-8
         2666.652     1.555084E-8
         2669.031     1.588442E-8
         2671.412     1.551189E-8
         2673.796     1.465107E-8
         2676.181     1.378730E-8
          2678.57     1.291944E-8
          2680.96     1.342376E-8
          2683.35     1.598111E-8
         2685.746     1.855268E-8
          2688.14     2.112923E-8
          2690.54     2.415845E-8
         2692.941     2.871826E-8
         2695.343     3.329294E-8
         2697.748     3.788705E-8
         2700.153     4.188067E-8
         2702.563     3.685246E-8
         2704.975     3.178892E-8
         2707.387     2.669255E-8
         2709.804     2.155656E-8
         2712.222     2.293839E-8
         2714.642     2.490861E-8
         2717.063     2.689186E-8
         2719.486     2.888860E-8
         2721.915     3.084331E-8
         2724.343     3.279321E-8
         2726.772     3.475603E-8
         2729.205     3.673183E-8
          2731.64     3.418159E-8
         2734.078     2.940295E-8
         2736.517     2.459368E-8
         2738.958     1.975133E-8
         2741.402     1.696512E-8
         2743.849     1.572120E-8
         2746.296     1.446930E-8
         2748.747     1.320780E-8
         2751.198     1.265439E-8
         2753.653     1.284797E-8
         2756.111     1.304196E-8
         2758.569     1.323624E-8
         2761.031     1.327493E-8
         2763.495     1.309665E-8
         2765.958     1.291818E-8
         2768.427     1.273911E-8
         2770.898     1.318034E-8
         2773.369     1.471043E-8
         2775.844     1.624468E-8
          2778.32     1.778129E-8
         2780.799     2.110072E-8
          2783.28     2.817886E-8
         2785.764     3.527251E-8
         2788.249     4.237609E-8
         2790.736     4.640526E-8
         2793.227     4.307978E-8
          2795.72     3.974746E-8
         2798.213     3.641024E-8
         2800.709     3.507557E-8
         2803.209     3.880955E-8
         2805.709     4.254880E-8
         2808.213     4.629813E-8
         2810.718     4.922385E-8
         2813.226     5.009041E-8
         2815.736     5.095813E-8
         2818.247     5.182751E-8
         2820.764     5.329498E-8
         2823.278     5.612795E-8
         2825.798     5.896989E-8
          2828.32     6.181723E-8
         2830.843     5.987127E-8
         2833.369     4.833962E-8
         2835.898     3.678510E-8
         2838.426     2.522332E-8
         2840.959     2.158819E-8
         2843.495     3.103299E-8
         2846.031     4.048954E-8
         2848.571     4.997062E-8
         2851.112     5.213302E-8
         2853.655     4.486424E-8
         2856.202     3.757815E-8
         2858.751     3.027895E-8
         2861.301     2.870827E-8
         2863.853     3.265330E-8
         2866.407     3.660566E-8
         2868.965     4.056760E-8
         2871.526     4.044122E-8
         2874.087     3.753607E-8
         2876.652     3.462371E-8
         2879.218     3.170830E-8
         2881.788     3.239996E-8
         2884.358     3.467485E-8
         2886.931     3.695381E-8
         2889.507     3.923792E-8
         2892.084     3.995584E-8
         2894.666     4.030366E-8
         2897.248     4.065187E-8
         2899.832     4.100061E-8
         2902.421     4.470682E-8
          2905.01     4.863395E-8
         2907.601     5.255363E-8
         2910.198     5.598206E-8
          2912.79     5.348651E-8
         2915.392     5.098928E-8
         2917.992     4.849979E-8
         2920.594     4.632571E-8
         2923.203     4.520314E-8
         2925.807     4.408523E-8
          2928.42     4.296663E-8
         2931.033     4.444401E-8
         2933.646     4.987583E-8
         2936.266     5.530588E-8
         2938.885     6.071734E-8
         2941.506     5.600054E-8
         2944.131     4.379944E-8
         2946.757     3.163143E-8
         2949.387     1.948197E-8
         2952.018     1.906439E-8
         2954.653     2.219938E-8
          2957.29     2.532740E-8
         2959.926     2.844465E-8
         2962.567     3.929511E-8
          2965.21     5.033874E-8
         2967.856     6.136257E-8
         2970.505     6.997763E-8
         2973.155     6.845973E-8
         2975.808     6.694385E-8
         2978.461     6.543293E-8
         2981.121     6.298815E-8
          2983.78     5.927118E-8
         2986.441     5.556255E-8
         2989.104     5.186261E-8
         2991.772     5.261177E-8
         2994.442     5.560148E-8
         2997.113     5.858195E-8
         2999.788     6.155668E-8
         3002.464     5.062227E-8
         3005.142     3.852125E-8
         3007.826     2.643450E-8
         3010.507     1.795600E-8
         3013.194     2.474681E-8
         3015.883     3.152034E-8
         3018.573     3.827223E-8
         3021.267     4.329463E-8
          3023.96     4.636789E-8
          3026.66     4.943842E-8
          3029.36     5.249696E-8
         3032.062     5.722593E-8
          3034.77     6.246917E-8
         3037.475     6.768855E-8
         3040.186     7.213130E-8
         3042.897     6.614805E-8
         3045.612     6.017985E-8
         3048.332     5.421985E-8
         3051.051     5.225608E-8
         3053.772     5.660085E-8
         3056.497     6.093619E-8
         3059.222     6.525317E-8
         3061.954     6.463955E-8
         3064.685     6.206998E-8
         3067.418     5.950691E-8
         3070.156     5.669333E-8
         3072.896     4.965706E-8
         3075.637     4.264428E-8
          3078.38     3.565196E-8
         3081.126     3.314129E-8
         3083.877     3.705528E-8
         3086.628     4.095288E-8
         3089.381     4.483822E-8
         3092.137     4.749042E-8
         3094.895     4.978078E-8
         3097.659     5.206662E-8
         3100.422     5.548520E-8
         3103.187     6.527115E-8
         3105.955     7.509342E-8
         3108.729     8.496426E-8
         3111.501     8.465754E-8
         3114.277     7.568801E-8
         3117.056     6.667923E-8
         3119.836     5.764299E-8
         3122.621     8.837652E-8
         3125.406     1.217012E-7
         3128.195     1.551674E-7
         3130.985     2.012676E-7
         3133.778     2.705466E-7
         3136.575     3.401247E-7
         3139.373     4.099173E-7
         3142.175     5.639607E-7
         3144.979     7.428384E-7
         3147.784     9.222874E-7
         3150.592     1.175045E-6
         3153.405     1.702178E-6
         3156.218     2.230575E-6
         3159.035     2.761296E-6
         3161.851     3.579349E-6
         3164.674     4.551820E-6
         3167.497     5.526709E-6
         3170.322     6.658164E-6
         3173.152     8.985937E-6
         3175.982     1.132107E-5
         3178.816     1.366622E-5
         3181.652     1.683083E-5
          3184.49     2.059000E-5
         3187.333     2.436827E-5
         3190.175     2.838243E-5
         3193.022     3.592861E-5
          3195.87     4.349869E-5
         3198.722     5.110120E-5
         3201.577     6.047632E-5
         3204.433     7.129736E-5
         3207.291     8.215819E-5
         3210.151     9.347335E-5
         3213.018     1.122905E-4
         3215.884     1.311531E-4
         3218.752     1.500871E-4
         3221.623     1.719741E-4
         3224.499     1.961790E-4
         3227.376     2.204748E-4
         3230.255     2.460495E-4
         3233.136     2.841273E-4
          3236.02     3.223484E-4
         3238.908     3.607362E-4
         3241.799     4.024325E-4
          3244.69     4.461838E-4
         3247.584     4.901040E-4
         3250.485     5.373963E-4
         3253.384     6.005648E-4
         3256.286     6.639709E-4
         3259.192     7.276527E-4
         3262.097     7.941212E-4
          3265.01     8.619876E-4
         3267.922     9.300174E-4
         3270.837     9.879653E-4
         3273.758     0.001020456
         3276.675     0.001052983
         3279.601     0.001085713
         3282.526     0.001118514
         3285.454     0.001151437
         3288.388      0.00118452
         3291.319     0.001242368
         3294.257     0.001333302
         3297.195     0.001421762
         3300.137     0.001513749
         3303.083      0.00160897
         3306.029     0.001704751
         3308.979     0.001808304
         3311.931     0.001910655
         3314.885     0.002011617
         3317.844     0.002122342
         3320.803     0.002236574
         3323.767     0.002351296
         3326.731     0.002470155
           3329.7     0.002593661
          3332.67     0.002712315
         3335.643     0.002843779
         3338.622     0.002981358
         3341.599     0.003113454
          3344.58     0.003255354
         3347.563     0.003407268
         3350.551     0.003556165
         3353.541     0.003706412
         3356.532     0.003860388
         3359.528     0.004020028
         3362.524     0.004191406
         3365.525     0.004361815
         3368.527     0.004546272
         3371.532     0.004736575
         3374.541     0.004920278
         3377.551     0.005109067
         3380.565     0.005311271
         3383.582     0.005523599
         3386.598     0.005731123
         3389.623       0.0059482
         3392.646     0.006161705
         3395.672     0.006355716
         3398.705     0.006529921
         3401.732     0.006845052
          3404.77     0.007081331
         3407.807      0.00732891
         3410.847     0.007573218
         3413.893      0.00781901
         3416.938     0.008075444
         3419.985     0.008333332
         3423.038     0.008581765
         3426.089     0.008839514
         3429.148      0.00909589
         3432.207     0.009344875
         3435.268     0.009594843
         3438.334     0.009845221
         3441.401      0.01009358
         3444.473      0.01034666
         3447.545      0.01059721
         3450.622      0.01084429
         3453.701      0.01107982
         3456.782      0.01130844
         3459.865      0.01152894
         3462.951      0.01174336
         3466.042      0.01195863
         3469.135      0.01217244
         3472.229      0.01238659
         3475.326      0.01258957
         3478.426      0.01278029
         3481.532      0.01296722
         3484.638      0.01315708
         3487.746      0.01334867
         3490.859       0.0135267
         3493.972       0.0137036
         3497.091      0.01387939
          3500.21      0.01405531
         3503.334      0.01422426
          3506.46      0.01438695
         3509.586      0.01455245
          3512.72      0.01471563
         3515.852      0.01487505
         3518.989      0.01503902
          3522.13      0.01521779
         3525.271      0.01539327
         3528.418      0.01556643
         3531.563      0.01573337
         3534.717      0.01590409
          3537.87      0.01607977
         3541.025       0.0162584
         3544.188       0.0164468
         3547.349      0.01662444
         3550.513      0.01680512
         3553.679      0.01699494
         3556.849       0.0171886
         3560.026      0.01738866
         3563.201      0.01759383
         3566.379      0.01779075
         3569.562      0.01799932
         3572.746      0.01821636
         3575.935      0.01843652
         3579.124      0.01867066
         3582.316       0.0188853
         3585.513      0.01910188
         3588.714      0.01932252
         3591.915      0.01955298
         3595.118      0.01978218
         3598.325       0.0200026
         3601.538      0.02022784
         3604.751      0.02045775
         3607.966      0.02068397
         3611.184      0.02092111
         3614.409      0.02116714
         3617.633      0.02138909
         3620.859      0.02160954
         3624.089      0.02183278
         3627.322      0.02205106
         3630.561      0.02227405
         3633.799      0.02248169
          3637.04       0.0226949
         3640.286       0.0228975
         3643.533      0.02308441
         3646.785      0.02327215
         3650.038      0.02346049
         3653.295      0.02364688
         3656.556      0.02381355
         3659.815      0.02398854
         3663.082      0.02416185
         3666.353      0.02432328
         3669.621      0.02447263
         3672.896      0.02462674
         3676.172      0.02478136
         3679.451      0.02493655
         3682.737       0.0250792
         3686.022      0.02520962
         3689.309      0.02533273
           3692.6      0.02545673
         3695.896      0.02557562
         3699.194      0.02571259
         3702.494      0.02584196
         3705.798      0.02595653
         3709.101      0.02608294
         3712.412      0.02620604
         3715.725      0.02633027
         3719.039      0.02644099
         3722.358      0.02656034
         3725.678      0.02667365
         3729.004      0.02679563
          3732.33      0.02691297
         3735.659      0.02703156
         3738.995      0.02715652
          3742.33      0.02728853
         3745.668       0.0274252
         3749.009      0.02755138
         3752.354      0.02768417
         3755.703      0.02783078
         3759.053      0.02796858
         3762.408      0.02810677
         3765.764      0.02825039
         3769.125      0.02838439
         3772.487      0.02853558
         3775.852      0.02868962
         3779.222      0.02884745
         3782.594      0.02900656
         3785.968      0.02915983
         3789.345       0.0293159
         3792.725      0.02947783
         3796.112      0.02966053
         3799.498      0.02982673
         3802.887      0.02998862
         3806.279      0.03016224
         3809.676       0.0303308
         3813.076      0.03049588
         3816.477      0.03065349
         3819.881      0.03083714
          3823.29      0.03101321
           3826.7       0.0311876
         3830.116      0.03136588
         3833.532      0.03153785
         3836.951      0.03170515
         3840.378      0.03187026
         3843.803      0.03202635
         3847.232      0.03220222
         3850.663      0.03236799
         3854.102      0.03252866
          3857.54      0.03269846
          3860.98      0.03289205
         3864.426      0.03306124
         3867.875      0.03322016
         3871.325      0.03337596
         3874.778      0.03352864
         3878.234      0.03368177
         3881.695      0.03382373
         3885.157      0.03397545
         3888.625      0.03412608
         3892.094      0.03427479
         3895.565      0.03440999
         3899.044      0.03454392
         3902.521      0.03468541
         3906.002      0.03483007
         3909.489      0.03495217
         3912.975       0.0350632
         3916.468      0.03519364
         3919.961      0.03531386
         3923.457      0.03541577
         3926.961      0.03552916
         3930.462      0.03563289
         3933.969      0.03575638
         3937.478      0.03584584
         3940.992      0.03594333
          3944.51      0.03603352
         3948.028      0.03611276
          3951.55      0.03620621
         3955.074      0.03630235
         3958.606      0.03638471
         3962.137      0.03646924
         3965.671      0.03653372
          3969.21      0.03659314
          3972.75      0.03665463
         3976.296      0.03672979
         3979.843       0.0367942
         3983.395      0.03684944
          3986.95      0.03690401
         3990.504       0.0369505
         3994.065      0.03698464
          3997.63       0.0370377
         4001.196       0.0370587
         4004.767      0.03703435
         4008.339      0.03701969
         4011.914      0.03698816
         4015.494      0.03696106
         4019.078      0.03693084
         4022.663      0.03689112
         4026.251      0.03683717
         4029.844      0.03679411
         4033.441      0.03675959
         4037.039      0.03673093
         4040.639      0.03668731
         4044.243      0.03666782
         4047.855      0.03663869
         4051.465      0.03661503
         4055.079      0.03658222
         4058.698      0.03654584
         4062.316      0.03650262
         4065.944      0.03647222
          4069.57      0.03644182
           4073.2      0.03642341
         4076.838      0.03640018
         4080.472      0.03636574
         4084.114      0.03631674
         4087.756      0.03627973
         4091.405      0.03625197
         4095.056      0.03623614
         4098.708      0.03619725
         4102.367       0.0361517
         4106.026      0.03612456
         4109.688      0.03609724
         4113.356      0.03605647
         4117.025      0.03600551
         4120.699      0.03596745
         4124.375      0.03592192
         4128.056      0.03586149
         4131.738      0.03582181
         4135.423      0.03576416
         4139.116      0.03571678
         4142.808      0.03567468
         4146.503       0.0356222
         4150.201      0.03557525
         4153.903      0.03551894
         4157.613      0.03545124
         4161.321      0.03539111
         4165.033      0.03531292
         4168.748      0.03523048
         4172.466      0.03515047
         4176.192      0.03507615
         4179.917      0.03498222
         4183.645      0.03487751
         4187.379      0.03476106
         4191.116      0.03463895
         4194.854       0.0345127
         4198.596      0.03436455
         4202.343      0.03423496
         4206.094      0.03411283
         4209.845      0.03398054
         4213.603      0.03384342
         4217.358      0.03369436
         4221.123      0.03352373
          4224.89      0.03333804
         4228.658      0.03315254
         4232.432       0.0329539
         4236.208      0.03273261
         4239.988        0.032532
          4243.77      0.03233057
         4247.555      0.03211149
         4251.348       0.0318877
          4255.14      0.03166222
         4258.936      0.03144713
         4262.734      0.03124589
         4266.537      0.03105992
         4270.347      0.03087157
         4274.155      0.03070312
         4277.968      0.03053899
         4281.786      0.03038537
         4285.605      0.03022553
          4289.43      0.03006351
         4293.256      0.02993957
         4297.085      0.02982183
         4300.922      0.02971238
         4304.759      0.02960199
         4308.598      0.02950936
         4312.441      0.02943188
          4316.29      0.02937458
         4320.142        0.029322
         4323.996      0.02927996
         4327.854      0.02924889
         4331.715      0.02924418
         4335.581      0.02924981
         4339.448      0.02927286
         4343.318      0.02930263
         4347.195      0.02933822
         4351.072      0.02938578
         4354.956       0.0294437
          4358.84      0.02950169
         4362.728      0.02956795
         4366.624      0.02962261
         4370.519      0.02966249
         4374.417      0.02967691
         4378.318      0.02968325
         4382.229      0.02965299
         4386.137        0.029583
         4390.049      0.02945774
         4393.967      0.02928034
         4397.889      0.02902854
         4401.812      0.02871457
         4405.738      0.02830419
         4409.667      0.02780888
         4413.603      0.02722925
         4417.542      0.02655422
         4421.482      0.02578231
         4425.426      0.02491064
         4429.373      0.02396795
         4433.329      0.02295601
         4437.283      0.02188105
         4441.241        0.020757
         4445.205      0.01961124
         4449.169       0.0184574
          4453.14      0.01729644
         4457.112      0.01614916
         4461.088      0.01501658
         4465.069      0.01392234
         4469.052      0.01287045
         4473.041      0.01187725
          4477.03       0.0109358
         4481.028      0.01005332
         4485.022     0.009232771
         4489.025     0.008457076
         4493.032     0.007748361
         4497.039     0.007095303
         4501.053     0.006499926
         4505.067     0.005968949
         4509.086     0.005489076
         4513.107     0.005050686
         4517.136     0.004647878
         4521.167     0.004277963
           4525.2     0.003941806
         4529.238     0.003631285
         4533.281     0.003350296
         4537.324     0.003095505
         4541.371     0.002859669
         4545.422     0.002647798
         4549.479     0.002449342
         4553.539     0.002266103
           4557.6     0.002102199
         4561.668     0.002006926
         4565.734     0.001918255
         4569.809     0.001828637
         4573.887     0.001738209
         4577.967     0.001646991
         4582.053     0.001546301
         4586.142     0.001436139
         4590.233     0.001326927
         4594.327     0.001247904
         4598.425     0.001168181
         4602.529     0.001091207
         4606.637     0.001015743
         4610.746     9.436377E-4
          4614.86     8.888690E-4
         4618.979     8.336071E-4
         4623.097     7.800139E-4
         4627.223     7.265751E-4
          4631.35     6.776823E-4
         4635.483     6.386181E-4
         4639.621     5.992157E-4
         4643.759     5.610957E-4
           4647.9     5.228112E-4
         4652.046     4.893799E-4
         4656.198     4.609940E-4
         4660.354     4.324685E-4
         4664.511     4.048221E-4
         4668.673     3.769295E-4
          4672.84     3.538943E-4
         4677.005     3.330837E-4
          4681.18     3.122520E-4
         4685.355     2.917263E-4
         4689.537     2.710150E-4
         4693.722     2.550845E-4
         4697.909     2.396500E-4
         4702.102     2.244267E-4
         4706.293     2.094447E-4
         4710.493     1.948034E-4
         4714.697     1.836894E-4
         4718.902     1.724903E-4
         4723.114     1.616033E-4
          4727.33     1.507734E-4
         4731.543     1.409397E-4
         4735.766     1.328782E-4
          4739.99     1.247549E-4
         4744.221     1.168138E-4
         4748.455     1.088091E-4
          4752.69     1.020982E-4
         4756.932     9.611077E-5
         4761.172     9.014456E-5
         4765.421     8.428666E-5
         4769.674     7.838201E-5
         4773.929     7.385768E-5
         4778.189     6.941272E-5
         4782.454     6.499426E-5
         4786.719     6.058878E-5
         4790.989     5.641209E-5
         4795.262     5.308144E-5
         4799.542     4.972223E-5
         4803.826     4.644410E-5
          4808.11     4.315520E-5
         4812.401     4.032282E-5
         4816.696     3.785088E-5
         4820.993     3.537911E-5
         4825.292     3.294912E-5
         4829.597     3.049984E-5
         4833.907     2.865030E-5
         4838.221     2.685035E-5
         4842.537     2.506008E-5
         4846.855     2.327196E-5
         4851.179     2.160469E-5
         4855.508     2.028515E-5
         4859.842     1.895542E-5
         4864.177     1.768153E-5
         4868.518     1.639962E-5
         4872.863     1.533720E-5
         4877.209     1.438630E-5
          4881.56     1.344225E-5
         4885.914     1.251671E-5
         4890.277     1.159849E-5
         4894.639     1.090399E-5
         4899.004     1.020420E-5
         4903.376     9.544408E-6
         4907.748     8.893870E-6
          4912.13     8.322060E-6
         4916.512     7.836572E-6
         4920.897     7.352406E-6
         4925.289     6.883799E-6
         4929.685     6.411635E-6
         4934.082     6.065162E-6
         4938.482     5.726089E-6
         4942.887     5.396814E-6
         4947.301     5.071186E-6
         4951.714     4.776023E-6
         4956.131     4.530003E-6
         4960.554     4.283293E-6
         4964.976     4.043842E-6
          4969.41     3.802170E-6
         4973.842     3.608834E-6
         4978.278     3.421768E-6
         4982.724     3.232824E-6
         4987.168     3.042563E-6
         4991.617     2.866012E-6
         4996.069     2.714725E-6
         5000.528     2.562337E-6
         5004.991     2.409529E-6
         5009.455     2.255465E-6
         5013.923     2.123009E-6
         5018.398     1.992528E-6
         5022.874     1.856503E-6
         5027.357     1.716701E-6
         5031.841     1.588075E-6
         5036.329     1.476055E-6
         5040.827     1.365342E-6
         5045.323     1.264501E-6
         5049.823     1.162791E-6
         5054.327     1.078202E-6
         5058.838     9.935802E-7
         5063.353     9.112467E-7
         5067.869     8.293227E-7
          5072.39     7.622098E-7
         5076.919     7.083578E-7
         5081.448     6.532772E-7
          5085.98     5.959406E-7
         5090.516     5.411925E-7
          5095.06     5.099199E-7
         5099.607     4.783852E-7
         5104.155     4.386472E-7
         5108.708     3.978222E-7
         5113.265     3.691967E-7
         5117.828     3.453021E-7
         5122.396     3.217809E-7
         5126.965     2.986031E-7
         5131.538     2.782588E-7
          5136.12     2.637222E-7
         5140.701     2.490483E-7
         5145.287     2.340588E-7
         5149.876     2.189470E-7
         5154.472     2.075379E-7
         5159.072     1.961424E-7
         5163.674     1.843202E-7
         5168.283     1.723075E-7
         5172.895     1.609486E-7
         5177.506     1.499567E-7
         5182.127     1.393286E-7
         5186.749     1.291685E-7
         5191.378     1.205984E-7
         5196.012     1.159340E-7
         5200.646     1.108627E-7
         5205.285     1.034433E-7
         5209.928     9.596484E-8
         5214.577     9.520208E-8
         5219.231     9.453883E-8
         5223.887     9.076690E-8
         5228.549     8.634610E-8
         5233.215     8.394052E-8
          5237.88     8.244645E-8
         5242.555     8.021473E-8
         5247.231     7.736399E-8
         5251.914     7.495034E-8
         5256.601     7.318783E-8
          5261.29     7.163990E-8
         5265.985     7.068283E-8
          5270.68     6.938438E-8
         5275.383     6.609072E-8
         5280.092     6.270533E-8
         5284.801     5.598507E-8
         5289.518     4.920979E-8
         5294.239     5.224847E-8
         5298.958     5.642938E-8
         5303.687     5.551934E-8
         5308.418     5.314835E-8
         5313.155     5.250252E-8
         5317.897     5.272923E-8
         5322.641     5.300714E-8
         5327.391     5.332679E-8
          5332.14     5.532034E-8
         5336.899     5.938087E-8
         5341.662     6.222152E-8
         5346.426     6.274405E-8
         5351.198     6.310649E-8
         5355.974     6.298225E-8
         5360.751     6.253396E-8
         5365.532     6.034777E-8
         5370.318     5.826923E-8
         5375.111     5.792881E-8
         5379.908     5.758497E-8
         5384.707     5.861272E-8
         5389.513     5.967411E-8
         5394.323     6.257785E-8
         5399.131     6.570470E-8
          5403.95     6.335516E-8
          5408.77     5.977545E-8
         5413.597     6.136558E-8
         5418.429     6.474981E-8
         5423.262     6.511542E-8
         5428.099     6.401277E-8
          5432.94     6.457645E-8
         5437.792     6.623197E-8
         5442.643     6.602739E-8
         5447.497     6.425367E-8
         5452.359     6.416911E-8
         5457.225     6.589722E-8
         5462.092     6.873742E-8
         5466.964     7.306414E-8
          5471.84     7.676748E-8
         5476.724     7.941858E-8
         5481.612     8.316002E-8
         5486.501     8.911357E-8
         5491.398     9.627019E-8
         5496.293     1.063794E-7
         5501.198     1.153588E-7
         5506.108     1.206455E-7
         5511.019     1.289643E-7
         5515.938     1.488596E-7
          5520.86     1.683710E-7
         5525.785     1.855990E-7
         5530.713     2.046327E-7
         5535.646     2.338748E-7
         5540.587     2.642632E-7
         5545.532     3.019356E-7
         5550.478     3.403753E-7
         5555.432     3.844589E-7
         5560.387     4.304142E-7
         5565.347     4.960652E-7
         5570.313     5.619290E-7
         5575.282     6.249774E-7
         5580.258     6.894940E-7
         5585.238     7.740223E-7
          5590.22     8.585827E-7
         5595.206     9.349627E-7
         5600.197     1.012405E-6
         5605.198     1.105573E-6
         5610.197     1.197641E-6
         5615.201     1.257296E-6
         5620.213     1.317530E-6
         5625.226     1.385051E-6
         5630.246     1.450615E-6
         5635.268     1.472616E-6
         5640.294     1.493161E-6
         5645.328     1.489125E-6
         5650.367     1.483305E-6
         5655.406     1.454993E-6
         5660.451     1.422881E-6
         5665.502     1.352976E-6
         5670.559     1.281226E-6
         5675.617     1.196616E-6
         5680.679     1.111536E-6
         5685.752     1.025122E-6
         5690.823     9.335707E-7
         5695.899     8.162608E-7
         5700.979     7.059515E-7
         5706.064     6.263896E-7
          5711.16     5.489728E-7
         5716.254     4.799876E-7
         5721.353     4.129988E-7
         5726.456     3.520123E-7
         5731.567     2.988283E-7
         5736.682     2.637394E-7
         5741.799     2.296532E-7
          5746.92     1.974953E-7
         5752.053     1.701337E-7
         5757.183     1.501453E-7
         5762.318     1.329825E-7
         5767.458     1.192868E-7
         5772.602     1.080601E-7
         5777.757     9.924999E-8
         5782.911     9.239894E-8
         5788.068     8.705192E-8
         5793.237     8.092895E-8
         5798.401     7.434754E-8
         5803.577     7.049729E-8
         5808.753     6.787267E-8
         5813.937     6.863564E-8
         5819.126     7.048025E-8
         5824.316     6.868634E-8
         5829.511     6.614625E-8
         5834.711     6.375183E-8
         5839.918     6.136322E-8
          5845.13     6.101461E-8
         5850.344     6.093172E-8
         5855.562     6.417636E-8
         5860.792     6.652628E-8
         5866.016     6.377512E-8
         5871.251     6.234357E-8
         5876.488     6.516083E-8
         5881.732     6.669464E-8
         5886.982     6.560234E-8
         5892.232     6.464058E-8
         5897.491     6.385606E-8
         5902.749     6.397703E-8
         5908.017     6.492956E-8
          5913.29     6.543072E-8
         5918.563     6.565859E-8
         5923.846     6.337800E-8
         5929.133     6.014959E-8
         5934.421     6.373519E-8
         5939.714     6.867435E-8
         5945.012     6.576391E-8
         5950.318     6.277661E-8
         5955.629     6.583017E-8
         5960.941     6.799984E-8
         5966.258     6.602124E-8
         5971.579     6.491471E-8
         5976.909     6.589300E-8
         5982.243     6.706971E-8
         5987.579     6.851891E-8
         5992.923     6.762625E-8
         5998.271     6.478099E-8
         6003.622     6.667003E-8
         6008.976     7.082649E-8
         6014.336     7.023938E-8
         6019.704     6.852758E-8
         6025.076     6.641583E-8
          6030.45     6.447517E-8
         6035.832     6.467732E-8
         6041.219     6.539228E-8
         6046.604     6.785920E-8
         6052.001     6.853797E-8
         6057.399     6.617060E-8
         6062.805     6.744487E-8
         6068.216     7.210549E-8
         6073.628     7.160205E-8
         6079.046     6.855371E-8
         6084.468     6.763950E-8
         6089.898     6.718079E-8
         6095.333     6.751898E-8
          6100.77     6.726642E-8
         6106.215     6.333330E-8
         6111.665     6.229588E-8
         6117.112     6.785477E-8
         6122.572     6.858195E-8
         6128.033     6.386507E-8
         6133.502     6.376993E-8
         6138.976     6.627923E-8
         6144.452     6.956634E-8
         6149.936     7.303888E-8
         6155.417     7.241596E-8
         6160.911     7.141123E-8
          6166.41     6.873696E-8
          6171.91     6.741541E-8
         6177.418     6.864239E-8
         6182.932     6.769697E-8
         6188.443     6.483725E-8
         6193.966     6.618209E-8
         6199.491     6.918214E-8
         6205.024     6.805517E-8
         6210.562     6.651317E-8
         6216.101     6.502175E-8
         6221.649     6.451954E-8
         6227.195     6.636285E-8
         6232.756     6.602538E-8
         6238.315     6.346240E-8
         6243.879     6.277200E-8
         6249.452     6.289660E-8
         6255.029     6.687551E-8
         6260.608     7.044166E-8
         6266.193     6.717543E-8
         6271.782     6.594203E-8
         6277.379     6.906581E-8
         6282.982     7.197050E-8
         6288.586     7.468093E-8
         6294.198     7.247282E-8
         6299.809     6.860613E-8
         6305.435     6.490968E-8
         6311.059     6.250072E-8
         6316.688     6.561721E-8
         6322.326     6.731436E-8
         6327.968     6.698168E-8
         6333.612     6.766236E-8
         6339.262     6.891458E-8
         6344.916     7.036216E-8
         6350.579     7.162161E-8
         6356.247     7.094916E-8
         6361.916     7.104475E-8
         6367.594     7.264880E-8
         6373.277     7.378944E-8
         6378.961     7.458891E-8
         6384.651     7.410381E-8
         6390.346     7.333067E-8
         6396.049     7.255495E-8
         6401.757     7.109607E-8
         6407.467     6.810218E-8
         6413.183     6.765755E-8
         6418.906     6.924670E-8
         6424.631     7.075764E-8
         6430.365     7.193206E-8
         6436.104     6.839389E-8
         6441.845     6.707020E-8
         6447.594     7.043077E-8
         6453.345     7.166545E-8
         6459.101     7.137020E-8
         6464.866     6.907897E-8
         6470.632     6.628308E-8
         6476.407     6.238194E-8
         6482.184     6.172456E-8
         6487.969     6.641276E-8
         6493.756     6.669153E-8
         6499.548     6.458294E-8
         6505.349     6.381529E-8
         6511.154     6.346120E-8
         6516.962     6.431083E-8
         6522.778     6.394661E-8
         6528.596     6.225924E-8
         6534.419     6.244244E-8
         6540.251     6.328735E-8
         6546.088     6.566528E-8
         6551.927     6.619350E-8
         6557.771     6.298288E-8
         6563.624     6.294174E-8
         6569.478     6.484450E-8
         6575.341     6.594143E-8
         6581.206     6.665540E-8
          6587.08     6.620522E-8
         6592.955     6.447345E-8
         6598.839     6.147715E-8
         6604.729     6.124846E-8
         6610.616     6.191566E-8
         6616.516     6.445852E-8
         6622.421     6.598238E-8
         6628.328     6.604610E-8
         6634.244     6.520103E-8
         6640.165     6.406967E-8
         6646.087     6.536938E-8
         6652.015     6.609174E-8
         6657.948     6.569851E-8
         6663.891     6.502235E-8
         6669.838     6.419834E-8
         6675.787     6.621458E-8
         6681.745     6.638616E-8
         6687.701     6.193208E-8
          6693.67     6.049644E-8
         6699.644     6.094957E-8
          6705.62     5.987666E-8
         6711.604     5.899330E-8
         6717.594     5.888734E-8
         6723.586     6.122592E-8
         6729.583     6.519632E-8
         6735.585     6.457014E-8
         6741.597     6.496557E-8
         6747.613     6.912403E-8
         6753.632     7.151743E-8
          6759.66     7.275511E-8
         6765.692     7.778632E-8
         6771.723     8.224393E-8
         6777.767     8.474545E-8
         6783.813     9.257104E-8
         6789.867     1.035003E-7
         6795.927     1.093325E-7
         6801.988     1.168210E-7
         6808.055     1.279533E-7
         6814.127     1.398711E-7
         6820.209     1.524233E-7
         6826.296     1.727033E-7
         6832.385     1.945340E-7
         6838.482     2.188304E-7
         6844.586     2.413449E-7
         6850.687     2.642508E-7
         6856.801     2.954131E-7
         6862.917     3.262994E-7
         6869.042     3.569330E-7
         6875.173     3.980376E-7
         6881.305     4.390692E-7
         6887.446     4.730808E-7
         6893.586     5.197410E-7
         6899.738     5.754263E-7
         6905.896     6.226151E-7
         6912.056     6.687097E-7
         6918.225     7.135892E-7
         6924.399     7.575628E-7
         6930.572     8.014432E-7
         6936.757     8.492498E-7
         6942.944     8.904838E-7
         6949.141     9.245619E-7
         6955.343     9.559661E-7
         6961.546     9.850900E-7
          6967.76     1.008881E-6
         6973.971     1.031249E-6
         6980.195     1.052646E-6
         6986.424     1.068388E-6
         6992.656     1.076181E-6
         6998.897     1.073334E-6
         7005.143     1.067401E-6
         7011.392     1.061534E-6
         7017.645     1.058145E-6
         7023.904     1.044407E-6
         7030.173     1.024474E-6
         7036.448     1.004417E-6
         7042.724     9.799949E-7
         7049.009     9.498498E-7
         7055.292     9.205835E-7
         7061.589     8.930123E-7
         7067.892     8.698970E-7
         7074.196     8.400825E-7
          7080.51     8.069504E-7
         7086.829     7.737640E-7
          7093.15     7.406909E-7
         7099.477     7.077073E-7
         7105.809     6.764126E-7
         7112.151     6.445605E-7
         7118.498     6.112516E-7
         7124.848     5.782476E-7
         7131.207     5.470703E-7
         7137.571     5.230482E-7
         7143.933     4.950620E-7
         7150.309     4.648418E-7
         7156.687     4.386562E-7
         7163.074     4.149787E-7
         7169.467     3.939987E-7
         7175.862     3.746310E-7
         7182.262     3.532035E-7
         7188.668     3.276977E-7
         7195.084     3.076145E-7
         7201.506     2.899536E-7
         7207.929     2.754404E-7
         7214.362     2.623372E-7
         7220.801     2.499291E-7
         7227.237     2.375376E-7
         7233.688     2.245403E-7
         7240.144     2.111681E-7
         7246.601     1.999445E-7
         7253.069     1.900219E-7
         7259.538     1.815384E-7
         7266.017     1.735112E-7
         7272.498     1.638037E-7
         7278.989     1.513423E-7
         7285.481     1.496400E-7
         7291.979     1.463147E-7
         7298.487     1.348015E-7
         7305.001     1.278957E-7
         7311.517     1.214926E-7
         7318.038     1.121353E-7
         7324.569     1.063791E-7
         7331.103     1.023664E-7
         7337.646     9.929222E-8
          7344.19     9.751555E-8
         7350.745     9.636822E-8
         7357.301     9.447956E-8
         7363.867     9.113928E-8
         7370.436     8.677866E-8
         7377.014     8.211290E-8
         7383.593     7.905984E-8
         7390.183     7.732547E-8
         7396.775     7.524535E-8
         7403.372     7.461259E-8
         7409.979     7.535387E-8
         7416.589     7.090907E-8
         7423.208     6.762667E-8
         7429.829     6.559065E-8
          7436.46     6.425397E-8
         7443.097     6.449230E-8
         7449.736     6.649483E-8
         7456.381     6.251498E-8
         7463.036     5.944499E-8
         7469.692     5.774573E-8
         7476.359     5.172954E-8
         7483.027     5.008097E-8
         7489.702     5.388853E-8
         7496.386     5.297293E-8
         7503.077     5.090050E-8
         7509.769     4.773736E-8
         7516.471     4.984813E-8
         7523.175     5.014802E-8
          7529.89     4.824438E-8
         7536.606     4.835211E-8
         7543.328     4.831312E-8
         7550.061     4.804560E-8
         7556.794     4.271757E-8
         7563.539     4.221646E-8
          7570.29     4.576024E-8
         7577.042     4.272243E-8
           7583.8     4.331072E-8
         7590.568     4.614133E-8
         7597.339     4.287534E-8
         7604.119     3.977570E-8
         7610.906     3.762277E-8
         7617.694     4.087365E-8
         7624.489     4.100501E-8
          7631.29     3.936554E-8
           7638.1     3.696128E-8
         7644.917     3.817724E-8
         7651.736     3.971635E-8
         7658.565     3.815622E-8
         7665.396     3.946400E-8
         7672.233     4.044440E-8
         7679.081     3.920260E-8
          7685.93     3.857787E-8
          7692.79     3.786143E-8
         7699.655     3.687412E-8
         7706.523     3.775498E-8
         7713.401     3.793808E-8
         7720.276     3.740352E-8
         7727.167     3.900153E-8
         7734.063     4.070858E-8
         7740.961     4.170653E-8
          7747.87     3.789217E-8
         7754.785     3.621719E-8
         7761.697     3.578951E-8
         7768.625     3.627477E-8
         7775.554     3.669101E-8
         7782.494     3.742373E-8
         7789.439     3.874777E-8
         7796.387     3.400347E-8
         7803.345     3.129048E-8
         7810.301     3.139769E-8
         7817.271     3.311951E-8
         7824.249     3.370356E-8
         7831.227     3.372731E-8
         7838.216     3.452324E-8
         7845.212     3.538585E-8
         7852.209     3.534521E-8
         7859.213     3.331368E-8
         7866.223     3.237920E-8
         7873.244     3.222468E-8
         7880.271     3.286842E-8
         7887.299     3.492428E-8
         7894.338     3.502953E-8
         7901.375     3.378937E-8
         7908.427     3.196946E-8
         7915.485     3.628573E-8
         7922.545     3.882474E-8
         7929.616     3.516233E-8
         7936.693     3.463993E-8
         7943.772     3.482700E-8
         7950.858     3.535630E-8
          7957.95     3.503039E-8
         7965.052     3.547520E-8
         7972.161     3.593317E-8
         7979.271     3.571499E-8
         7986.393     3.744299E-8
         7993.521     4.521017E-8
         8000.646     5.551226E-8
         8007.786     3.224276E-8
         8014.929     3.162054E-8
         8022.082     3.545046E-8
         8029.242     2.572135E-8
         8036.403     2.457544E-8
         8043.576     2.443948E-8
         8050.746     2.430388E-8
         8057.931     2.416833E-8
         8065.123     2.403298E-8
         8072.316     2.770665E-8
         8079.521     3.933187E-8
         8086.731     2.894301E-8
          8093.94     2.349389E-8
         8101.164     2.386587E-8
         8108.389     2.685497E-8
         8115.626     2.737250E-8
         8122.869     2.598158E-8
         8130.114     2.284906E-8
          8137.37     2.426214E-8
         8144.628     2.369651E-8
         8151.893     2.242559E-8
         8159.168     2.229294E-8
         8166.446     2.250847E-8
         8173.734     2.414923E-8
         8181.029     2.615795E-8
         8188.326     2.255513E-8
          8195.63     2.163329E-8
         8202.939     2.271736E-8
         8210.261     2.538679E-8
         8217.588     2.262273E-8
         8224.918     3.912317E-8
         8232.259     4.874457E-8
         8239.602     2.226903E-8
          8246.95     2.071888E-8
         8254.311     2.058908E-8
         8261.673     2.045958E-8
         8269.047     2.033022E-8
         8276.427     2.020109E-8
         8283.809     2.007228E-8
         8291.197     2.022610E-8
         8298.597     2.183005E-8
         8305.999     2.061872E-8
         8313.412     1.955906E-8
         8320.827     2.355778E-8
         8328.253     6.020524E-8
         8335.687     4.041302E-8
         8343.121     1.919051E-8
         8350.563     1.935182E-8
         8358.011     1.896204E-8
         8365.471     1.953369E-8
         8372.937     1.968353E-8
         8380.409     1.870516E-8
         8387.879     1.864851E-8
         8395.365     1.859139E-8
         8402.854     1.853390E-8
         8410.353     1.861688E-8
         8417.859     2.154890E-8
         8425.367     2.450552E-8
         8432.887     2.398921E-8
         8440.408     1.840095E-8
         8447.937     2.129258E-8
         8455.477     1.988797E-8
         8463.019     1.805937E-8
         8470.571     1.799820E-8
         8478.127     1.793666E-8
         8485.693     1.903974E-8
         8493.262     1.918638E-8
         8500.842     1.774931E-8
         8508.425     1.768487E-8
         8516.019     1.761996E-8
         8523.614     1.755467E-8
         8531.221     1.748891E-8
          8538.83     1.742275E-8
         8546.446     1.735617E-8
         8554.074     1.805765E-8
         8561.704     1.884727E-8
         8569.345     1.764134E-8
         8576.993     1.857015E-8
         8584.644     1.806003E-8
         8592.301     1.694729E-8
         8599.969     1.687758E-8
          8607.64     1.956476E-8
         8615.321     2.054778E-8
         8623.006     1.945275E-8
         8630.702     1.689575E-8
         8638.405     2.011501E-8
         8646.105     1.810737E-8
         8653.821     2.696190E-8
          8661.54     3.962832E-8
         8669.271     1.822641E-8
         8677.008     1.614772E-8
         8684.747     1.607080E-8
         8692.493     1.599342E-8
         8700.251     1.603570E-8
         8708.012     1.965346E-8
         8715.783     1.934809E-8
         8723.563     1.744142E-8
         8731.343     1.559976E-8
         8739.136     1.551966E-8
         8746.926     1.543920E-8
         8754.732     1.552370E-8
         8762.546     1.553604E-8
         8770.361     1.519488E-8
         8778.188     1.511251E-8
         8786.019     1.502972E-8
         8793.859     1.494643E-8
         8801.703     1.486272E-8
         8809.554     1.477855E-8
         8817.416     1.469386E-8
         8825.286     1.558803E-8
         8833.157     1.578342E-8
         8841.041     1.489045E-8
         8848.922     1.821342E-8
         8856.819     3.465819E-8
         8864.724     2.958176E-8
         8872.631     1.528968E-8
          8880.55     1.399951E-8
         8888.476     1.391054E-8
         8896.403     1.619461E-8
         8904.338     1.581635E-8
          8912.28     1.364089E-8
         8920.234     1.354997E-8
         8928.195     1.345857E-8
         8936.159     1.361667E-8
         8944.135     1.351070E-8
         8952.117     1.324713E-8
         8960.097     1.339320E-8
         8968.094     1.304882E-8
         8976.093     1.289396E-8
         8984.104     1.279730E-8
         8992.122     1.301125E-8
         9000.143     1.410222E-8
         9008.175     1.650286E-8
         9016.205     3.685573E-8
         9024.252     4.135014E-8
         9032.306     2.690228E-8
         9040.362     1.247839E-8
         9048.431     1.328607E-8
         9056.506     1.247411E-8
         9064.579     1.190865E-8
         9072.669     1.320968E-8
         9080.761     1.650556E-8
         9088.865     1.222311E-8
         9096.978     1.338634E-8
         9105.092     2.143019E-8
         9113.218     2.489672E-8
         9121.341     1.677254E-8
         9129.481     1.174572E-8
          9137.63     1.115248E-8
          9145.78     1.100159E-8
         9153.942     1.146603E-8
         9162.112     1.192084E-8
         9170.284     1.072072E-8
         9178.464     1.062623E-8
         9186.655     1.053122E-8
         9194.849     1.190484E-8
         9203.056     1.242450E-8
         9211.264     1.024356E-8
         9219.485     1.014670E-8
         9227.708     1.004945E-8
         9235.938     9.951720E-9
         9244.182     9.853466E-9
         9252.427     9.754435E-9
         9260.685     9.653995E-9
         9268.949     9.553111E-9
         9277.217     1.091014E-8
         9285.492     1.025121E-8
         9293.779     1.145412E-8
         9302.068     1.394069E-8
          9310.37     1.013976E-8
         9318.675     1.140876E-8
         9326.991     9.634849E-9
         9335.315     1.075820E-8
         9343.637     1.400105E-8
         9351.977     1.655195E-8
         9360.317     1.605084E-8
         9368.672     1.377147E-8
         9377.033     1.766825E-8
         9385.396     1.323814E-8
         9393.768     7.985864E-9
         9402.152     7.916233E-9
         9410.538     7.936380E-9
         9418.937     7.678379E-9
         9427.338     9.179743E-9
         9435.752     8.369706E-9
         9444.173     7.329522E-9
         9452.592     7.218568E-9
         9461.028     7.107004E-9
         9469.472     6.994967E-9
         9477.918     6.882504E-9
         9486.377     6.769488E-9
         9494.838     6.656059E-9
         9503.313     6.554080E-9
         9511.788     6.470831E-9
         9520.272     6.387681E-9
          9528.77     6.304595E-9
         9537.269     1.582683E-8
          9545.78     1.172384E-8
           9554.3     1.043158E-8
         9562.821     1.311471E-8
         9571.351     6.402150E-9
         9579.894     8.001249E-9
         9588.438     6.067229E-9
         9596.995     5.644328E-9
         9605.561     5.562311E-9
         9614.128     5.480471E-9
         9622.704     5.398745E-9
         9631.286     5.317163E-9
         9639.882     5.235655E-9
         9648.485     5.654983E-9
         9657.092     5.241974E-9
         9665.711     1.264476E-8
         9674.332     1.238312E-8
         9682.961     4.830219E-9
         9691.603     4.749508E-9
         9700.252     4.668936E-9
         9708.904     4.588546E-9
         9717.569     4.508252E-9
         9726.237     4.428143E-9
         9734.912     4.348185E-9
         9743.601     4.268316E-9
         9752.291     4.188145E-9
         9760.995     4.106703E-9
         9769.701     4.025526E-9
         9778.421     8.276698E-9
         9787.147     7.069717E-9
         9795.872     4.783346E-9
         9804.614     5.913966E-9
         9813.359     6.736044E-9
         9822.118     3.542809E-9
         9830.884     3.463104E-9
         9839.652     3.383666E-9
         9848.435     3.304403E-9
         9857.219     3.225418E-9
         9866.011     3.146662E-9
         9874.816     3.533084E-9
         9883.624     3.589653E-9
         9892.444     3.318420E-9
         9901.273     4.247047E-9
         9910.104     2.791224E-9
         9918.944     5.589506E-9
         9927.791     3.299935E-9
         9936.651     2.524880E-9
         9945.521     2.448211E-9
         9954.391     2.371848E-9
         9963.275     2.295676E-9
         9972.162     2.262154E-9
         9981.057     2.443296E-9
         9989.964     3.251342E-9
          9998.88     3.794014E-9
          10007.8     3.245858E-9
         10016.72     2.276157E-9
         10025.67     1.869898E-9
          10034.6     1.830709E-9
         10043.56     1.791695E-9
         10052.52     1.752994E-9
         10061.49     1.714568E-9
         10070.47     1.696010E-9
         10079.46     2.022594E-9
         10088.45     1.662580E-9
         10097.44     1.588194E-9
         10106.46     1.559082E-9
         10115.48     1.504133E-9
          10124.5     1.453133E-9
         10133.53     1.416897E-9
         10142.58     1.771671E-9
         10151.62     2.582449E-9
         10160.68     1.349190E-9
         10169.74     1.824500E-9
         10178.81     1.305071E-9
          10187.9     1.314933E-9
         10196.99     1.305568E-9
         10206.08     1.412624E-9
         10215.19     1.275635E-9
         10224.31     1.069888E-9
         10233.43     1.705075E-9
         10242.56     2.408219E-9
         10251.69    9.713780E-10
         10260.85    9.390791E-10
           10270.    9.071134E-10
         10279.16    8.936969E-10
         10288.33    8.632701E-10
         10297.51    9.455196E-10
          10306.7    8.362247E-10
         10315.89    7.645125E-10
          10325.1    7.317094E-10
          10334.3    6.915065E-10
         10343.53    7.754828E-10
         10352.76    8.550133E-10
         10361.99    6.035277E-10
         10371.25    5.747808E-10
          10380.5    5.494824E-10
         10389.76    5.761462E-10
         10399.02    4.959344E-10
          10408.3    5.878525E-10
         10417.59    4.698019E-10
         10426.89    4.952693E-10
         10436.19    4.269984E-10
         10445.49    3.559609E-10
         10454.82    3.643297E-10
         10464.15    4.642670E-10
         10473.48    4.540000E-10
         10482.82    2.539128E-10
         10492.17    2.291890E-10
         10501.54    2.079759E-10
         10510.91    2.033124E-10
         10520.29    1.986906E-10
         10529.67    1.941118E-10
         10539.07    1.895698E-10
         10548.47    1.850758E-10
         10557.88    3.203448E-10
         10567.31    2.227673E-10
         10576.73    1.718463E-10
         10586.17    3.335628E-10
         10595.61    2.783949E-10
         10605.06    1.590112E-10
         10614.53    1.548142E-10
           10624.    1.506668E-10
         10633.48    1.465628E-10
         10642.96    1.473986E-10
         10652.45    1.533583E-10
         10661.97    1.432261E-10
         10671.48    1.305839E-10
         10680.99    1.267012E-10
         10690.53    1.228589E-10
         10700.07    1.190659E-10
         10709.61    1.153178E-10
         10719.16    1.258154E-10
         10728.72    1.098685E-10
         10738.31    1.298561E-10
         10747.88    4.869017E-10
         10757.47    2.668252E-10
         10767.08    1.133614E-10
         10776.67    9.034632E-11
         10786.29    1.182311E-10
         10795.91    1.031515E-10
         10805.54    8.545566E-11
         10815.18    8.136185E-11
         10824.83    1.502169E-10
         10834.49    1.609422E-10
         10844.17    7.613946E-11
         10853.84    6.456629E-11
         10863.52    6.155580E-11
         10873.21    5.859287E-11
         10882.91    7.766787E-11
         10892.63    1.084716E-10
         10902.35    6.677808E-11
         10912.07    7.775249E-11
         10921.81    5.233962E-11
         10931.54    4.181278E-11
         10941.31    3.918152E-11
         10951.07    3.660213E-11
         10960.83    3.407129E-11
         10970.62    3.158620E-11
         10980.39    2.915585E-11
          10990.2    2.688381E-11
           11000.    2.968129E-11
