#  Table wf2f255wsys.tab  Mon 12:21:39 02-Jun-97

#      WAVELENGTH      THROUGHPUT
#       angstroms                

            1216.    2.643256E-22
          1217.34    2.679801E-22
         1218.682    2.716646E-22
         1220.026    2.753673E-22
         1221.371    2.782670E-22
         1222.717    2.811866E-22
         1224.065    2.841295E-22
         1225.414    2.870939E-22
         1226.765    2.900802E-22
         1228.117    2.930886E-22
         1229.471    2.961189E-22
         1230.826    2.987086E-22
         1232.183    3.010198E-22
         1233.542    3.033459E-22
         1234.901    3.056839E-22
         1236.262    3.080370E-22
         1237.625    3.104031E-22
         1238.989    3.127846E-22
         1240.355    3.150238E-22
         1241.722    3.168227E-22
         1243.091    3.186312E-22
         1244.461    3.204484E-22
         1245.833    3.222734E-22
         1247.207    3.241090E-22
         1248.582    3.259527E-22
         1249.957    3.278041E-22
         1251.335    3.292295E-22
         1252.715    3.306464E-22
         1254.095    3.320681E-22
         1255.478    3.334964E-22
         1256.862    3.349296E-22
         1258.247    3.363675E-22
         1259.634    3.378115E-22
         1261.023    3.389877E-22
         1262.413    3.400695E-22
         1263.805    3.411543E-22
         1265.198    3.422421E-22
         1266.592    3.433325E-22
         1267.989    3.444266E-22
         1269.387    3.455242E-22
         1270.786    3.464483E-22
         1272.187    3.472376E-22
         1273.588    3.480279E-22
         1274.992    3.488199E-22
         1276.399    3.496136E-22
         1277.805    3.504080E-22
         1279.214    3.512040E-22
         1280.624    3.518935E-22
         1282.035    3.524470E-22
         1283.449    3.530013E-22
         1284.864    3.535556E-22
          1286.28    3.541096E-22
         1287.698    3.546644E-22
         1289.117    3.552192E-22
         1290.538    3.557077E-22
         1291.961    3.560865E-22
         1293.385    3.564649E-22
         1294.811    3.568426E-22
         1296.238    3.572199E-22
         1297.668    3.575969E-22
         1299.098    3.579731E-22
          1300.53    3.583079E-22
         1301.963    3.585721E-22
         1303.398    3.588353E-22
         1304.835    3.590977E-22
         1306.274    3.593592E-22
         1307.713    3.596195E-22
         1309.155    3.598791E-22
         1310.597    3.601016E-22
         1312.042    3.602723E-22
         1313.489    3.604417E-22
         1314.937    3.606099E-22
         1316.386    3.607767E-22
         1317.837    3.609422E-22
          1319.29    3.611065E-22
         1320.744    3.612342E-22
           1322.2    3.613268E-22
         1323.657    3.614177E-22
         1325.117    3.615072E-22
         1326.578    3.615951E-22
         1328.039    3.616813E-22
         1329.503    3.617661E-22
         1330.969    3.618081E-22
         1332.436    3.618273E-22
         1333.905    3.618447E-22
         1335.376    3.618603E-22
         1336.847    3.618740E-22
         1338.321    3.618860E-22
         1339.796    3.618961E-22
         1341.273    3.618682E-22
         1342.752    3.618326E-22
         1344.232    3.617949E-22
         1345.713    3.617554E-22
         1347.197    3.617138E-22
         1348.682    3.616701E-22
         1350.169    3.616209E-22
         1351.657    3.615426E-22
         1353.146    3.614621E-22
         1354.638    3.613360E-22
         1356.131    3.611497E-22
         1357.627    3.609614E-22
         1359.123    3.607716E-22
         1360.621    3.605726E-22
         1362.121    3.603616E-22
         1363.622    3.601489E-22
         1365.126    3.599340E-22
          1366.63    3.597175E-22
         1368.137    3.594989E-22
         1369.645    3.592784E-22
         1371.155    3.590554E-22
         1372.667    3.588302E-22
          1374.18    3.586032E-22
         1375.694    3.583744E-22
         1377.211    3.581434E-22
         1378.729    3.579106E-22
         1380.249    3.576775E-22
         1381.771    3.574513E-22
         1383.294    3.572232E-22
         1384.818    3.569934E-22
         1386.345    3.567614E-22
         1387.874    3.565275E-22
         1389.403    3.562918E-22
         1390.935    3.560706E-22
         1392.468    3.558580E-22
         1394.002    3.556436E-22
          1395.54    3.554271E-22
         1397.078    3.552089E-22
         1398.618    3.549892E-22
          1400.16    3.547710E-22
         1401.703    3.545828E-22
         1403.248    3.543929E-22
         1404.795    3.542011E-22
         1406.343    3.540077E-22
         1407.894    3.538126E-22
         1409.446    3.536156E-22
         1410.999    3.534286E-22
         1412.555    3.532461E-22
         1414.112    3.530619E-22
          1415.67    3.528762E-22
         1417.231    3.526887E-22
         1418.793    3.524995E-22
         1420.357    3.523068E-22
         1421.923    3.521064E-22
         1423.491    3.519043E-22
         1425.059    3.517005E-22
          1426.63    3.514950E-22
         1428.203    3.512878E-22
         1429.777    3.510789E-22
         1431.354    3.508456E-22
         1432.932    3.506070E-22
          1434.51    3.503667E-22
         1436.092    3.501244E-22
         1437.676    3.498803E-22
          1439.26    3.496346E-22
         1440.847    3.493595E-22
         1442.435    3.490582E-22
         1444.024    3.487552E-22
         1445.617    3.484501E-22
          1447.21    3.481433E-22
         1448.805    3.478346E-22
         1450.402    3.475043E-22
         1452.001    3.471139E-22
         1453.602    3.467211E-22
         1455.205    3.463264E-22
         1456.808    3.459300E-22
         1458.414    3.455313E-22
         1460.022    3.451293E-22
         1461.631    3.446306E-22
         1463.243    3.441298E-22
         1464.856    3.436267E-22
          1466.47    3.431218E-22
         1468.086    3.426143E-22
         1469.706    3.421044E-22
         1471.325    3.414919E-22
         1472.947    3.408543E-22
         1474.571    3.402143E-22
         1476.196    3.395722E-22
         1477.824    3.389271E-22
         1479.453    3.382801E-22
         1481.083    3.375362E-22
         1482.716    3.367415E-22
          1484.35    3.359444E-22
         1485.987    3.351446E-22
         1487.625    3.345925E-22
         1489.264    3.344406E-22
         1490.906    3.341910E-22
         1492.549    3.338602E-22
         1494.195    3.335218E-22
         1495.842    3.331758E-22
         1497.491    3.328221E-22
         1499.142    3.324608E-22
         1500.794    3.318826E-22
         1502.449    3.310678E-22
         1504.105    3.302442E-22
         1505.763    3.294106E-22
         1507.423    3.285674E-22
         1509.084    3.277151E-22
         1510.748    3.267946E-22
         1512.414    3.257942E-22
          1514.08    3.247842E-22
         1515.749    3.237639E-22
         1517.419    3.227341E-22
         1519.093    3.216933E-22
         1520.768    3.206081E-22
         1522.444    3.194713E-22
         1524.122    3.183251E-22
         1525.802    3.171683E-22
         1527.484    3.160015E-22
         1529.168    3.148247E-22
         1530.854    3.136207E-22
          1532.54    3.728779E-12
          1534.23    7.787322E-12
         1535.921    1.181762E-11
         1537.615    1.582079E-11
          1539.31    1.979116E-11
         1541.006    2.373408E-11
         1542.705    2.764784E-11
         1544.405    3.152939E-11
         1546.109    3.532648E-11
         1547.812    3.904278E-11
         1549.518    4.271104E-11
         1551.227    4.633594E-11
         1552.936    4.991271E-11
         1554.648    5.344276E-11
         1556.363    5.692625E-11
         1558.078    6.035783E-11
         1559.795    6.374217E-11
         1561.515    6.709865E-11
         1563.235    7.040984E-11
         1564.958    7.367643E-11
         1566.685    7.689849E-11
         1568.411    8.007122E-11
          1570.14    8.320228E-11
         1571.871    8.632507E-11
         1573.603    8.940325E-11
         1575.338    9.243997E-11
         1577.075    9.543510E-11
         1578.813    9.838427E-11
         1580.553    1.013121E-10
         1582.295    1.042423E-10
         1584.039    1.071354E-10
         1585.785    1.099893E-10
         1587.534    1.128043E-10
         1589.284    1.155804E-10
         1591.036    1.183714E-10
          1592.79    1.211648E-10
         1594.545    1.239227E-10
         1596.303    1.266479E-10
         1598.062    1.293389E-10
         1599.824    1.319958E-10
         1601.588    1.347281E-10
         1603.353    1.374427E-10
          1605.12    1.401299E-10
          1606.89    1.427887E-10
         1608.661    1.454190E-10
         1610.434    1.480556E-10
          1612.21    1.507760E-10
         1613.986    1.534726E-10
         1615.765    1.561477E-10
         1617.548    1.588018E-10
          1619.33    1.614302E-10
         1621.115    1.641414E-10
         1622.902    1.668977E-10
          1624.69    1.696360E-10
         1626.482    1.723605E-10
         1628.275    1.750660E-10
         1630.069    1.777632E-10
         1631.867    1.806268E-10
         1633.665    1.834787E-10
         1635.466    1.863236E-10
         1637.269    1.891571E-10
         1639.074    1.919806E-10
          1640.88    1.948967E-10
         1642.689    1.979193E-10
           1644.5    2.009389E-10
         1646.313    2.039554E-10
         1648.128    2.069811E-10
         1649.944    2.101649E-10
         1651.763    2.135858E-10
         1653.585    2.170258E-10
         1655.407    2.204720E-10
         1657.232    2.239301E-10
         1659.058    2.273963E-10
         1660.888    2.309924E-10
         1662.719    2.347257E-10
         1664.552    2.384768E-10
         1666.386    2.422441E-10
         1668.223    2.460310E-10
         1670.062    2.498435E-10
         1671.903    2.538997E-10
         1673.746    2.579807E-10
          1675.59    2.620856E-10
         1677.437    2.662182E-10
         1679.287    2.703766E-10
         1681.139    2.746979E-10
         1682.991    2.791308E-10
         1684.847    2.835989E-10
         1686.704    2.881002E-10
         1688.563    2.926326E-10
         1690.425    2.972492E-10
         1692.287    3.020540E-10
         1694.153    3.069014E-10
         1696.021    3.117892E-10
          1697.89    3.167151E-10
         1699.762    3.216868E-10
         1701.636    3.268606E-10
         1703.512    3.321052E-10
         1705.389    3.373938E-10
         1707.269    3.427330E-10
         1709.151    3.481200E-10
         1711.035    3.536498E-10
         1712.922    3.593098E-10
         1714.809    3.650211E-10
         1716.699    3.707891E-10
         1718.592    3.766119E-10
         1720.485    3.825240E-10
         1722.383    3.886088E-10
         1724.281    3.947466E-10
         1726.182    4.009484E-10
         1728.086    4.072141E-10
          1729.99    4.135352E-10
         1731.897    4.200497E-10
         1733.806    4.266309E-10
         1735.718    4.332784E-10
          1737.63    4.399891E-10
         1739.546    4.467703E-10
         1741.463    4.536993E-10
         1743.383    4.607235E-10
         1745.305    4.678193E-10
         1747.228    4.749839E-10
         1749.154    4.822249E-10
         1751.084    4.891139E-10
         1753.013    4.957176E-10
         1754.946    5.023767E-10
          1756.88    5.090886E-10
         1758.817    5.158529E-10
         1760.756    5.226967E-10
         1762.697    5.296356E-10
         1764.639    5.366261E-10
         1766.585    5.436752E-10
         1768.532    5.507801E-10
         1770.482    5.579585E-10
         1772.434    5.652460E-10
         1774.387    5.725914E-10
         1776.343    5.799919E-10
         1778.301    5.874544E-10
         1780.262    5.949888E-10
         1782.224    6.026339E-10
         1784.189    6.103438E-10
         1786.156    6.181151E-10
         1788.124    6.259442E-10
         1790.096    6.338463E-10
         1792.068    6.418762E-10
         1794.044    6.499743E-10
         1796.022    6.581369E-10
         1798.001    6.663604E-10
         1799.984    6.746571E-10
         1801.968    6.830814E-10
         1803.954    6.915736E-10
         1805.942    7.001297E-10
         1807.933    7.087570E-10
         1809.926    7.174529E-10
         1811.922    7.262941E-10
         1813.919    7.352082E-10
         1815.918    7.441884E-10
          1817.92    7.532449E-10
         1819.925    7.623767E-10
          1821.93    7.716471E-10
         1823.938    7.809983E-10
         1825.948    7.904195E-10
         1827.962    7.999244E-10
         1829.976    8.094950E-10
         1831.995    8.192327E-10
         1834.013    8.290387E-10
         1836.035    8.389275E-10
         1838.059    8.488944E-10
         1840.084    8.589379E-10
         1842.113    8.691444E-10
         1844.144    8.794314E-10
         1846.177    8.897995E-10
         1848.212    9.002497E-10
         1850.248    9.107875E-10
         1852.288    9.214894E-10
          1854.33    9.322763E-10
         1856.375    9.431540E-10
         1858.421    9.541056E-10
         1860.469    9.651698E-10
          1862.52    9.763887E-10
         1864.573    9.877008E-10
         1866.628    9.991021E-10
         1868.686     1.010592E-9
         1870.746     1.022206E-9
         1872.808     1.033969E-9
         1874.872     1.045819E-9
         1876.939     1.057767E-9
         1879.008     1.069805E-9
         1881.079     1.081091E-9
         1883.153     1.092498E-9
         1885.229     1.103978E-9
         1887.307     1.115528E-9
         1889.387     1.127157E-9
         1891.471     3.703756E-8
         1893.555     8.831244E-8
         1895.643     1.401421E-7
         1897.732     1.924986E-7
         1899.823     2.453619E-7
         1901.919     2.988367E-7
         1904.014     3.528020E-7
         1906.113     4.073427E-7
         1908.215     4.624326E-7
         1910.317     5.703088E-7
         1912.424     9.753307E-7
         1914.532     1.384164E-6
         1916.643     1.797581E-6
         1918.755     2.214833E-6
          1920.87     2.636584E-6
         1922.988     3.062730E-6
         1925.107     3.492996E-6
          1927.23     3.928022E-6
         1929.354     4.366970E-6
         1931.481     4.612447E-6
          1933.61     4.773327E-6
          1935.74     4.935604E-6
         1937.875     5.099545E-6
         1940.011     5.264807E-6
         1942.149     5.431946E-6
          1944.29     5.600602E-6
         1946.434     5.770789E-6
          1948.58     5.942501E-6
         1950.728     6.106073E-6
         1952.878     6.252079E-6
          1955.03     6.399287E-6
         1957.185     6.547835E-6
         1959.343     6.697646E-6
         1961.503     6.848929E-6
         1963.665     7.001580E-6
         1965.829     7.155449E-6
         1967.996     7.310690E-6
         1970.167     7.466540E-6
         1972.339     7.614248E-6
         1974.512     7.763097E-6
         1976.689     7.913243E-6
         1978.868     8.064609E-6
         1981.049     8.217336E-6
         1983.233     8.371454E-6
         1985.418     8.526729E-6
         1987.607     8.683336E-6
         1989.798     8.841188E-6
         1991.992     9.100470E-6
         1994.188     9.372251E-6
         1996.386     9.646413E-6
         1998.586     9.922839E-6
         2000.789     1.020520E-5
         2002.996     1.049659E-5
         2005.203     1.079067E-5
         2007.414     1.108790E-5
         2009.627     1.138814E-5
         2011.841     1.164716E-5
          2014.06     1.189995E-5
         2016.279     1.215492E-5
         2018.502     1.241248E-5
         2020.727     1.267246E-5
         2022.955     1.293482E-5
         2025.185     1.319966E-5
         2027.417     1.346702E-5
         2029.652     1.373689E-5
         2031.889     1.422753E-5
         2034.129     1.476390E-5
         2036.371     1.530590E-5
         2038.616     1.585345E-5
         2040.864     1.640647E-5
         2043.112     1.696460E-5
         2045.365     1.752866E-5
         2047.621     1.809871E-5
         2049.877     1.867391E-5
         2052.137     1.929174E-5
         2054.399     1.991779E-5
         2056.664     2.055005E-5
         2058.931     2.118862E-5
         2061.201     2.183269E-5
         2063.472     2.248203E-5
         2065.747     2.313792E-5
         2068.024     2.380017E-5
         2070.304     2.448173E-5
         2072.586     2.525488E-5
         2074.871     2.603533E-5
         2077.157     2.682295E-5
         2079.447     2.761836E-5
          2081.74     2.841972E-5
         2084.034     2.922720E-5
         2086.332     3.004245E-5
         2088.632     3.086527E-5
         2090.933     3.180211E-5
          2093.24     3.290650E-5
         2095.546     3.401989E-5
         2097.856     3.514408E-5
         2100.169     3.627835E-5
         2102.483     3.741829E-5
         2104.802     3.856967E-5
         2107.121     3.973002E-5
         2109.444     4.090132E-5
         2111.769     4.222353E-5
         2114.097     4.360178E-5
         2116.428     4.499192E-5
          2118.76     4.639344E-5
         2121.097     4.780467E-5
         2123.434     4.922206E-5
         2125.775     5.065184E-5
         2128.118     5.209353E-5
         2130.463     5.360656E-5
         2132.813     5.537994E-5
         2135.163     5.716587E-5
         2137.518     5.896789E-5
         2139.875     6.080203E-5
         2142.231     6.264228E-5
         2144.594     6.449989E-5
         2146.958     6.637196E-5
         2149.325     6.825939E-5
         2151.693     7.058425E-5
         2154.065     7.309819E-5
          2156.44     7.563212E-5
         2158.817     7.818641E-5
         2161.197     8.075166E-5
         2163.578     8.332508E-5
         2165.964     8.591956E-5
         2168.353     8.853470E-5
         2170.743     9.136355E-5
         2173.135     9.464637E-5
         2175.529     9.795255E-5
         2177.929     1.012857E-4
         2180.329     1.046346E-4
         2182.733     1.079840E-4
         2185.138     1.113520E-4
         2187.547     1.147437E-4
         2189.959     1.181577E-4
         2192.372     1.225800E-4
         2194.789     1.270481E-4
         2197.208     1.315436E-4
         2199.632     1.360682E-4
         2202.056     1.414356E-4
         2204.482     1.470333E-4
         2206.912     1.527231E-4
         2209.345     1.585025E-4
         2211.782     1.655907E-4
         2214.219     1.732349E-4
          2216.66     1.810050E-4
         2219.104     1.888981E-4
         2221.549     1.968899E-4
         2223.998     2.049945E-4
         2226.449     2.132216E-4
         2228.904     2.215729E-4
         2231.361     2.313031E-4
          2233.82     2.421951E-4
         2236.284     2.532617E-4
         2238.748     2.644818E-4
         2241.217     2.758552E-4
         2243.687     2.873568E-4
         2246.159     2.990220E-4
         2248.636     3.108631E-4
         2251.114     3.244506E-4
         2253.597     3.402096E-4
          2256.08     3.561750E-4
         2258.567     3.723716E-4
         2261.057     3.887681E-4
         2263.548     4.053416E-4
         2266.045     4.221547E-4
         2268.542     4.391744E-4
         2271.042     4.585139E-4
         2273.546     4.810495E-4
         2276.051     5.038722E-4
         2278.562     5.270169E-4
         2281.072     5.504157E-4
         2283.588     5.741011E-4
         2286.104     5.980619E-4
         2288.623     6.223252E-4
         2291.147     6.505057E-4
         2293.672     6.833508E-4
         2296.202     7.166653E-4
         2298.732     7.506607E-4
         2301.266     7.850926E-4
         2303.803     8.199405E-4
         2306.342     8.552201E-4
         2308.885     8.909822E-4
         2311.431     9.320392E-4
         2313.979     9.774289E-4
          2316.53     0.001023397
         2319.082     0.001069919
         2321.639     0.001116986
         2324.198     0.001164595
          2326.76     0.001212787
         2329.325     0.001261559
         2331.892     0.001318255
         2334.463     0.001378302
         2337.038     0.001439107
         2339.613      0.00150057
         2342.193     0.001562715
         2344.774       0.0016255
         2347.357     0.001689007
         2349.947     0.001753312
         2352.536     0.001824777
         2355.131      0.00189726
         2357.726     0.001970487
         2360.326     0.002044585
         2362.927     0.002119233
         2365.531     0.002194704
          2368.14     0.002271064
         2370.749     0.002348026
         2373.364     0.002425517
         2375.979     0.002503741
         2378.598     0.002582825
          2381.22       0.0026626
         2383.844     0.002742988
         2386.473     0.002824279
         2389.103     0.002906302
         2391.737     0.002981992
         2394.373     0.003054669
         2397.012     0.003128007
         2399.656     0.003202103
           2402.3     0.003276482
         2404.949     0.003351569
           2407.6     0.003427298
         2410.252     0.003502006
          2412.91     0.003561781
          2415.57      0.00362202
         2418.233     0.003682757
         2420.898     0.003743842
         2423.567     0.003805211
         2426.238      0.00386707
         2428.913      0.00392943
         2431.591     0.003980846
         2434.271      0.00402478
         2436.954     0.004068989
         2439.641     0.004113543
         2442.331     0.004158142
         2445.022     0.004202983
         2447.718     0.004248147
         2450.416     0.004291138
         2453.117     0.004320776
         2455.822     0.004350555
         2458.528     0.004380466
         2461.239     0.004410453
         2463.951     0.004440438
         2466.669     0.004470597
         2469.387     0.004500872
         2472.108     0.004523355
         2474.834     0.004543606
         2477.561     0.004563884
         2480.294     0.004584223
         2483.027     0.004604504
         2485.764     0.004624844
         2488.504     0.004645234
         2491.246      0.00466249
         2493.994     0.004675955
         2496.742      0.00468939
         2499.494     0.004702817
          2502.25     0.004716227
         2505.007     0.004729614
          2507.77     0.004742998
         2510.533     0.004755803
         2513.302     0.004766286
         2516.072     0.004776715
         2518.844       0.0047871
         2521.622     0.004797485
         2524.401     0.004807836
         2527.185     0.004818152
         2529.969     0.004828414
         2532.759     0.004835762
         2535.551     0.004843004
         2538.344     0.004844963
         2541.144     0.004841251
         2543.946     0.004837501
          2546.75     0.004833642
         2549.558     0.004829675
         2552.367     0.004824087
          2555.18     0.004818094
         2557.997     0.004811984
         2560.817     0.004805807
         2563.639     0.004799646
         2566.465      0.00479336
         2569.294     0.004786957
         2572.128     0.004778761
         2574.962      0.00476989
           2577.8     0.004760888
         2580.643      0.00475181
         2583.486     0.004742837
         2586.336      0.00473372
         2589.186     0.004724479
         2592.039     0.004712645
         2594.897     0.004699666
         2597.757     0.004686547
         2600.622     0.004673329
         2603.487     0.004660211
         2606.357     0.004646931
         2609.231     0.004633497
         2612.106     0.004618221
         2614.985     0.004602151
          2617.87       0.0045859
         2620.754     0.004569572
         2623.643     0.004553273
         2626.536     0.004536803
         2629.431     0.004520161
         2632.328     0.004500399
         2635.232       0.0044797
         2638.135     0.004458829
         2641.045     0.004437818
         2643.955     0.004416765
          2646.87     0.004395505
         2649.788     0.004374053
         2652.708     0.004350779
         2655.633     0.004327146
          2658.56      0.00430333
          2661.49     0.004279406
         2664.424     0.004255376
          2667.36      0.00423115
         2670.302     0.004206215
         2673.244     0.004176931
         2676.193     0.004147382
         2679.142     0.004117635
         2682.094     0.004087803
         2685.052     0.004057771
         2688.012     0.004027523
         2690.975     0.003996639
          2693.94     0.003964713
          2696.91     0.003932535
         2699.883      0.00390012
         2702.858      0.00387483
         2705.839     0.003849491
         2708.822     0.003823838
         2711.807     0.003796724
         2714.796     0.003768503
         2717.789     0.003739933
         2720.785     0.003711041
         2723.785     0.003681869
         2726.788     0.003652345
         2729.792     0.003622484
         2732.802     0.003590565
         2735.814      0.00355815
          2738.83     0.003525364
         2741.849     0.003492237
         2744.872     0.003458756
         2747.898     0.003424899
         2750.926     0.003387162
         2753.958     0.003341203
         2756.994     0.003295118
         2760.034     0.003248904
         2763.076     0.003202514
         2766.121     0.003156021
         2769.172     0.003109351
         2772.223      0.00306149
         2775.281     0.003013036
         2778.339     0.002964501
           2781.4     0.002915798
         2784.468     0.002866883
         2787.536     0.002817885
          2790.61     0.002768742
         2793.685     0.002719649
         2796.765     0.002670405
         2799.848     0.002621036
         2802.933     0.002571505
         2806.025     0.002521798
         2809.117     0.002472015
         2812.213     0.002422092
         2815.314     0.002372044
         2818.417     0.002321876
         2821.524     0.002271547
         2824.633      0.00222109
         2827.749     0.002170459
         2830.865     0.002120449
         2833.985     0.002072097
         2837.109     0.002023634
         2840.236     0.001975069
         2843.368      0.00192628
         2846.501     0.001877425
         2849.641     0.001828408
         2852.781     0.001782306
         2855.924     0.001736484
         2859.074     0.001690512
         2862.226     0.001644432
         2865.381     0.001598238
          2868.54     0.001551938
         2871.701     0.001507715
         2874.866     0.001465226
         2878.036     0.001422642
         2881.208     0.001379965
         2884.385     0.001337186
         2887.563     0.001294335
         2890.748     0.001252736
         2893.935     0.001215596
         2897.123     0.001178395
         2900.317     0.001140849
         2903.515     0.001101058
         2906.715     0.001061353
          2909.92     0.001021729
         2913.126     9.876756E-4
         2916.338     9.538163E-4
         2919.552     9.200341E-4
         2922.773     8.862971E-4
         2925.993     8.526681E-4
         2929.217     8.191139E-4
         2932.448     7.900253E-4
         2935.679     7.624423E-4
         2938.916     7.349099E-4
         2942.155     7.074439E-4
         2945.399     6.800428E-4
         2948.646     6.527063E-4
         2951.895     6.282150E-4
         2955.151     6.057365E-4
         2958.407     5.833363E-4
         2961.668     5.609810E-4
         2964.933     5.386839E-4
           2968.2     5.164528E-4
         2971.474     4.962207E-4
         2974.748     4.784519E-4
         2978.027     4.607207E-4
          2981.31     4.430330E-4
         2984.595     4.253961E-4
         2987.887     4.077907E-4
         2991.179     3.837997E-4
         2994.477     3.483142E-4
         2997.778     3.129335E-4
         3001.083     2.858813E-4
         3004.391     2.757730E-4
         3007.702     2.656978E-4
         3011.019     2.555620E-4
         3014.337     2.452884E-4
         3017.658     2.350448E-4
         3020.987     2.255236E-4
         3024.317     2.177021E-4
         3027.651     2.099032E-4
         3030.987     2.020907E-4
         3034.328     1.942034E-4
         3037.673     1.863398E-4
         3041.022     1.789984E-4
         3044.375     1.728138E-4
         3047.731     1.666482E-4
         3051.089     1.604681E-4
         3054.454     1.542260E-4
          3057.82     1.480091E-4
         3061.191     1.422634E-4
         3064.565     1.373660E-4
         3067.944     1.324840E-4
         3071.326     1.276005E-4
          3074.71     1.227085E-4
           3078.1     1.178301E-4
         3081.495     1.134408E-4
          3084.89     1.096738E-4
         3088.292     1.059155E-4
         3091.696     1.020870E-4
         3095.102     9.818516E-5
         3098.516     9.429229E-5
          3101.93     9.115318E-5
         3105.351     8.857140E-5
         3108.773     8.597994E-5
           3112.2     8.325647E-5
         3115.631     8.045368E-5
         3119.064     7.763885E-5
         3122.504     7.536591E-5
         3125.945     7.329339E-5
         3129.391     7.120970E-5
         3132.841     6.897935E-5
         3136.294     6.670888E-5
         3139.752     6.442756E-5
         3143.211     6.265369E-5
         3146.678     6.090979E-5
         3150.145     5.915739E-5
         3153.618     5.735195E-5
         3157.095     5.553799E-5
         3160.573     5.378894E-5
         3164.059     5.239889E-5
         3167.546     5.100361E-5
         3171.039     4.959330E-5
         3174.533     4.816120E-5
         3178.031     4.672236E-5
         3181.536     4.540146E-5
         3185.044     4.423692E-5
         3188.555     4.306683E-5
         3192.068     4.187790E-5
         3195.587     4.067289E-5
          3199.11     3.946219E-5
         3202.637     3.844667E-5
         3206.167     3.749435E-5
           3209.7     3.653792E-5
         3213.239     3.556603E-5
         3216.781     3.458853E-5
         3220.327     3.362491E-5
         3223.877     3.283985E-5
         3227.431     3.205093E-5
         3230.989     3.124500E-5
         3234.549     3.040099E-5
         3238.115     2.955247E-5
         3241.685     2.878553E-5
         3245.259     2.811084E-5
         3248.836     2.743288E-5
         3252.418     2.675145E-5
         3256.003     2.606665E-5
         3259.591     2.537888E-5
         3263.186     2.481772E-5
         3266.781     2.427122E-5
         3270.383     2.371914E-5
         3273.988     2.314259E-5
         3277.596     2.256352E-5
         3281.209     2.202292E-5
         3284.826     2.156265E-5
         3288.449     2.109988E-5
         3292.073     2.059959E-5
           3295.7     2.007002E-5
         3299.335     1.953734E-5
          3302.97     1.910607E-5
         3306.614     1.869551E-5
         3310.257     1.828427E-5
         3313.906     1.788270E-5
         3317.559     1.747919E-5
         3321.215     1.709096E-5
         3324.878     1.673488E-5
         3328.542     1.637744E-5
         3332.211     1.601035E-5
         3335.885     1.563637E-5
          3339.56     1.526074E-5
         3343.244     1.498660E-5
         3346.927     1.472548E-5
         3350.619     1.445173E-5
         3354.311     1.412205E-5
         3358.007     1.379072E-5
          3361.71     1.349424E-5
         3365.415     1.323955E-5
         3369.126     1.298332E-5
         3372.839     1.270573E-5
         3376.557     1.242033E-5
         3380.279     1.214059E-5
         3384.004     1.194704E-5
         3387.736     1.175230E-5
         3391.469     1.153545E-5
         3395.208     1.128442E-5
         3398.953     1.103199E-5
         3402.698     1.081806E-5
         3406.449     1.061832E-5
         3410.204     1.041980E-5
         3413.964     1.025954E-5
         3417.727     1.009846E-5
         3421.493     9.925644E-6
         3425.265     9.735099E-6
         3429.043     9.543483E-6
         3432.821     9.361652E-6
         3436.606     9.182386E-6
         3440.394     9.003660E-6
         3444.185     8.836829E-6
         3447.984     8.668951E-6
         3451.783     8.520487E-6
         3455.588     8.394008E-6
         3459.398     8.266846E-6
         3463.211     8.114819E-6
         3467.029     7.957430E-6
          3470.85     7.805753E-6
         3474.678     7.675822E-6
         3478.506     7.545321E-6
         3482.339     7.423113E-6
          3486.18     7.305875E-6
         3490.023     7.188072E-6
         3493.871     7.069669E-6
          3497.72     6.950680E-6
         3501.576     6.831037E-6
         3505.437     6.710821E-6
         3509.301     6.589942E-6
          3513.17     6.493041E-6
         3517.041     6.401097E-6
         3520.918     6.305028E-6
         3524.799     6.196923E-6
         3528.685     6.088221E-6
         3532.575     5.999170E-6
         3536.468     5.920034E-6
         3540.368     5.837473E-6
         3544.269     5.726699E-6
         3548.176     5.615253E-6
         3552.088     5.527981E-6
         3556.004     5.461942E-6
         3559.924     5.395520E-6
         3563.846     5.298264E-6
         3567.777     5.199760E-6
         3571.708     5.114438E-6
         3575.644     5.046446E-6
         3579.588     4.977998E-6
         3583.534     4.909261E-6
         3587.484     4.840139E-6
         3591.439     4.770621E-6
         3595.396     4.700748E-6
          3599.36     4.630435E-6
         3603.328     4.573284E-6
         3607.301     4.518415E-6
         3611.277     4.458005E-6
         3615.256     4.386208E-6
         3619.242     4.313966E-6
         3623.234     4.254632E-6
         3627.226     4.198151E-6
         3631.223     4.141320E-6
         3635.228     4.084073E-6
         3639.237     4.026493E-6
         3643.247     3.968636E-6
         3647.261     3.910442E-6
         3651.284     3.857217E-6
         3655.307     3.815203E-6
         3659.335     3.772936E-6
         3663.371     3.716244E-6
         3667.408     3.656480E-6
         3671.453     3.602429E-6
         3675.498     3.559058E-6
         3679.552     3.515382E-6
         3683.606     3.471491E-6
         3687.665     3.427340E-6
         3691.732     3.382882E-6
           3695.8     3.338207E-6
         3699.876     3.293222E-6
         3703.953     3.248016E-6
         3708.039     3.202497E-6
         3712.124     3.165895E-6
         3716.215     3.137540E-6
         3720.313     3.107626E-6
         3724.413     3.061165E-6
         3728.521     3.014381E-6
         3732.629     2.978802E-6
         3736.746     2.949437E-6
         3740.863     2.916151E-6
         3744.985     2.868396E-6
         3749.116     2.820313E-6
         3753.247     2.786276E-6
         3757.386     2.755905E-6
         3761.526     2.718622E-6
         3765.675     2.669462E-6
         3769.824     2.620066E-6
         3773.978     2.605792E-6
         3778.141     2.592975E-6
         3782.304     2.569776E-6
         3786.473     2.538070E-6
         3790.648     2.506169E-6
         3794.824     2.474065E-6
          3799.01     2.441737E-6
         3803.196     2.409274E-6
         3807.389     2.376602E-6
         3811.586     2.350919E-6
          3815.79     2.336933E-6
         3819.994     2.322867E-6
         3824.203     2.289492E-6
         3828.419     2.255877E-6
          3832.64     2.222064E-6
         3836.865     2.188049E-6
         3841.095     2.158877E-6
         3845.331     2.144002E-6
         3849.568     2.129046E-6
          3853.81     2.113968E-6
         3858.058     2.098785E-6
         3862.312     2.072731E-6
         3866.572     2.037425E-6
         3870.832     2.005839E-6
         3875.099     1.990136E-6
         3879.369     1.974342E-6
         3883.646     1.941269E-6
         3887.927     1.905027E-6
         3892.213     1.879028E-6
         3896.504     1.862699E-6
           3900.8     1.846265E-6
           3905.1     1.829710E-6
         3909.403     1.813061E-6
         3913.712     1.796280E-6
         3918.027     1.779395E-6
         3922.346     1.762393E-6
          3926.67     1.745278E-6
         3930.999     1.728059E-6
         3935.333     1.710736E-6
         3939.669     1.693319E-6
         3944.012     1.656316E-6
          3948.36     1.617495E-6
         3952.712     1.591649E-6
          3957.07     1.573660E-6
         3961.432     1.555552E-6
         3965.799     1.537308E-6
         3970.169     1.519801E-6
         3974.546     1.522848E-6
         3978.927     1.525902E-6
         3983.314     1.512596E-6
         3987.705     1.493900E-6
         3992.101     1.475079E-6
           3996.5     1.456141E-6
         4000.906     1.436453E-6
         4005.316     1.414253E-6
         4009.732     1.392036E-6
         4014.152     1.369777E-6
         4018.577     1.347502E-6
         4023.008     1.325192E-6
          4027.44     1.302872E-6
          4031.88     1.289842E-6
         4036.325     1.289498E-6
         4040.775     1.285308E-6
         4045.229     1.262858E-6
         4049.689     1.240396E-6
         4054.153     1.217898E-6
          4058.62     1.195399E-6
         4063.094     1.172860E-6
         4067.574     1.150304E-6
         4072.058     1.137909E-6
         4076.547     1.137508E-6
         4081.041     1.131956E-6
         4085.538     1.109311E-6
         4090.042     1.086851E-6
         4094.548     1.086440E-6
         4099.064     1.086026E-6
         4103.583     1.067903E-6
         4108.107     1.045145E-6
         4112.636     1.022379E-6
         4117.165     9.996265E-7
         4121.706     9.852261E-7
          4126.25     9.847769E-7
         4130.799     9.803938E-7
         4135.353     9.575383E-7
         4139.911     9.346786E-7
         4144.473     9.338032E-7
          4149.04     9.333637E-7
         4153.616     9.151456E-7
         4158.195     8.922105E-7
         4162.779     8.829019E-7
         4167.366     8.824504E-7
         4171.962     8.723771E-7
         4176.559     8.493986E-7
         4181.163     8.321016E-7
         4185.772     8.316536E-7
         4190.385     8.293220E-7
         4195.006     8.062742E-7
         4199.629     7.832462E-7
         4204.261     7.822113E-7
         4208.894     7.830952E-7
         4213.531     7.839789E-7
         4218.178     7.848646E-7
         4222.826     7.718634E-7
         4227.484     7.498235E-7
         4232.142     7.382730E-7
          4236.81     7.390939E-7
         4241.478     7.326207E-7
         4246.151     7.103454E-7
         4250.835     6.920981E-7
         4255.519     6.928551E-7
         4260.212     6.936136E-7
         4264.907     6.943608E-7
         4269.606     6.951092E-7
         4274.315     6.744115E-7
         4279.025     6.517025E-7
         4283.744     6.475396E-7
         4288.464     6.482266E-7
         4293.194     6.489144E-7
         4297.925     6.496017E-7
         4302.661     6.369754E-7
         4307.406     6.138781E-7
         4312.152     6.015174E-7
         4316.909     6.021455E-7
         4321.665     6.027735E-7
         4326.432     6.034022E-7
         4331.199     5.979971E-7
         4335.971     5.745720E-7
         4340.753     5.548476E-7
         4345.537     5.554166E-7
          4350.33     5.559862E-7
         4355.123     5.565479E-7
         4359.926     5.571109E-7
          4364.73     5.336983E-7
          4369.54     5.098383E-7
         4374.359     5.080146E-7
         4379.179     5.085271E-7
         4384.009     5.090401E-7
          4388.84     5.095534E-7
          4393.68     5.100612E-7
         4398.521     5.105672E-7
         4403.368     5.110788E-7
         4408.225     5.115938E-7
         4413.082     4.963202E-7
          4417.95     4.718601E-7
         4422.817     4.618072E-7
         4427.696     4.622654E-7
         4432.574     4.627196E-7
         4437.458     4.631707E-7
         4442.353     4.636260E-7
         4447.248     4.640844E-7
         4452.153     4.534287E-7
         4457.059     4.285242E-7
          4461.97     4.137296E-7
         4466.891     4.141328E-7
         4471.813     4.145359E-7
         4476.745     4.149396E-7
         4481.678     4.153435E-7
         4486.618     4.157479E-7
         4491.564     4.161525E-7
         4496.514     4.165571E-7
         4501.473     4.097749E-7
         4506.433     3.858121E-7
         4511.401     3.689346E-7
         4516.375     3.707619E-7
         4521.355     3.725938E-7
         4526.337     3.744302E-7
         4531.325     3.762676E-7
          4536.32     3.781046E-7
         4541.321     3.799439E-7
         4546.328     3.817854E-7
         4551.339     3.836309E-7
         4556.357     3.854831E-7
          4561.38     3.797007E-7
         4566.406     3.535718E-7
          4571.44     3.351776E-7
         4576.479     3.367686E-7
         4581.527     3.383625E-7
         4586.575     3.399569E-7
         4591.632     3.415543E-7
         4596.691     3.431530E-7
         4601.758     3.447546E-7
         4606.832     3.463583E-7
          4611.91     3.479642E-7
         4616.994     3.495722E-7
         4622.084     3.511801E-7
          4627.18     3.527871E-7
         4632.278     3.409431E-7
         4637.385     3.121960E-7
         4642.497     2.980272E-7
         4647.615     2.993778E-7
         4652.738     3.007301E-7
         4657.868     3.020841E-7
         4663.002     3.034372E-7
         4668.141     3.047896E-7
         4673.287     3.061474E-7
         4678.438     3.075087E-7
         4683.596     3.088718E-7
         4688.759     3.102367E-7
         4693.928     3.115996E-7
           4699.1     3.129625E-7
         4704.281     3.143319E-7
         4709.467     3.157039E-7
         4714.658     3.170734E-7
         4719.856     3.184444E-7
         4725.059     2.874615E-7
         4730.268     2.569604E-7
          4735.48     2.580607E-7
         4740.701     2.591637E-7
         4745.927     2.602715E-7
         4751.159     2.613798E-7
         4756.396     2.624863E-7
          4761.64     2.635955E-7
         4766.889     2.647091E-7
         4772.142     2.658237E-7
         4777.402     2.669403E-7
         4782.669     2.680563E-7
         4787.941     2.691716E-7
          4793.22     2.702910E-7
         4798.504     2.714134E-7
         4803.791     2.725367E-7
         4809.087     2.736621E-7
         4814.389     2.747855E-7
         4819.696     2.759094E-7
         4825.009     2.770391E-7
         4830.328     2.758886E-7
         4835.653     2.398285E-7
         4840.981     2.103277E-7
         4846.318     2.111797E-7
         4851.661     2.120317E-7
         4857.009     2.128822E-7
         4862.364     2.137355E-7
         4867.724     2.145920E-7
          4873.09     2.154495E-7
         4878.457     2.163071E-7
         4883.838     2.171673E-7
         4889.222     2.180282E-7
         4894.612     2.188902E-7
         4900.008     2.197534E-7
         4905.409     2.206211E-7
         4910.814     2.214892E-7
         4916.228     2.223557E-7
         4921.648     2.232235E-7
         4927.074     2.240922E-7
         4932.505     2.249622E-7
          4937.94     2.258327E-7
         4943.386     2.267077E-7
         4948.833     2.275846E-7
         4954.289     2.284629E-7
          4959.75     2.293423E-7
         4965.216     2.302189E-7
         4970.692     2.310977E-7
         4976.169     2.319804E-7
         4981.658     2.328651E-7
         4987.146     2.337499E-7
         4992.642     2.139754E-7
         4998.148     1.715523E-7
         5003.656     1.576955E-7
         5009.174     1.584208E-7
         5014.694     1.591465E-7
         5020.219     1.598732E-7
         5025.756     1.606042E-7
         5031.294     1.613348E-7
         5036.843     1.620652E-7
         5042.394     1.627971E-7
         5047.955     1.635321E-7
         5053.517     1.642656E-7
         5059.085     1.649991E-7
         5064.665     1.657367E-7
         5070.246     1.664751E-7
         5075.838     1.672152E-7
         5081.431     1.679548E-7
         5087.036     1.686941E-7
         5092.641     1.694350E-7
         5098.252     1.701784E-7
         5103.875     1.709236E-7
         5109.499     1.716690E-7
         5115.134     1.724163E-7
         5120.771     1.731639E-7
         5126.418     1.739131E-7
         5132.067     1.746617E-7
         5137.722     1.754094E-7
         5143.389     1.761606E-7
         5149.056     1.769133E-7
         5154.735     1.776679E-7
         5160.415     1.784227E-7
         5166.107     1.791792E-7
         5171.799     1.799360E-7
         5177.498     1.806940E-7
         5183.208     1.814520E-7
         5188.919     1.822089E-7
         5194.643     1.829700E-7
         5200.366     1.837318E-7
         5206.102     1.844926E-7
         5211.838     1.852547E-7
         5217.581     1.860198E-7
         5223.336     1.867850E-7
         5229.091     1.875492E-7
         5234.859     1.883151E-7
         5240.627     1.890813E-7
         5246.407     1.898491E-7
         5252.188     1.906186E-7
         5257.975     1.913912E-7
         5263.774     1.921612E-7
         5269.574     1.929291E-7
         5275.383     1.415638E-7
         5281.199     9.723767E-8
         5287.018     9.762488E-8
          5292.85     9.801219E-8
         5298.682     9.839869E-8
         5304.523     9.878591E-8
         5310.371     9.917377E-8
         5316.228     9.956396E-8
         5322.085     9.995303E-8
          5327.95     1.003403E-7
         5333.826     1.007296E-7
         5339.703     1.011196E-7
          5345.59     1.015104E-7
         5351.483     1.019013E-7
         5357.385     1.022914E-7
         5363.289     1.026816E-7
         5369.198     1.030724E-7
         5375.117     1.034623E-7
         5381.042     1.038527E-7
         5386.978     1.042453E-7
         5392.914     1.046371E-7
         5398.858     1.050285E-7
         5404.807     1.054203E-7
         5410.766     1.058128E-7
          5416.73     1.062057E-7
         5422.702     1.065983E-7
          5428.68     1.069903E-7
         5434.665     1.073827E-7
         5440.656     1.077756E-7
         5446.651     1.081688E-7
         5452.655     1.085617E-7
         5458.666     1.089539E-7
         5464.684     1.093467E-7
         5470.708     1.097398E-7
         5476.739     1.101313E-7
         5482.777     1.105233E-7
         5488.818     1.109156E-7
         5494.869     1.113085E-7
         5500.926     1.116977E-7
         5506.991     1.120637E-7
         5513.062     1.124299E-7
         5519.139     1.127962E-7
         5525.221     1.131626E-7
         5531.312     1.135290E-7
          5537.41     1.138939E-7
         5543.514     1.142577E-7
         5549.625     1.146209E-7
         5555.743     1.149862E-7
         5561.868     1.153512E-7
         5567.996     1.157146E-7
         5574.134     1.160785E-7
         5580.279     1.164425E-7
         5586.431     1.168044E-7
          5592.59     1.171666E-7
         5598.755     1.175289E-7
         5604.927     1.177739E-7
         5611.103     1.179892E-7
         5617.289     1.182046E-7
         5623.481     1.184190E-7
         5629.681     1.186325E-7
         5635.887     1.188458E-7
           5642.1     1.190592E-7
         5648.316     1.192726E-7
         5654.543     1.194861E-7
         5660.777     1.196997E-7
         5667.018     1.199133E-7
         5673.265     1.201257E-7
         5679.519     1.203370E-7
          5685.78     1.205485E-7
         5692.045     1.207598E-7
          5698.32     1.209712E-7
         5704.602     1.211826E-7
         5710.891     1.213941E-7
         5717.187     1.216056E-7
         5723.489     1.218170E-7
         5729.799     1.220285E-7
         5736.112     1.222399E-7
         5742.436     1.224504E-7
         5748.766     1.226596E-7
         5755.104     1.228705E-7
         5761.448     1.230819E-7
           5767.8     1.232934E-7
         5774.155     1.235032E-7
         5780.521     1.237124E-7
         5786.893     1.239237E-7
         5793.272     1.241338E-7
         5799.659     1.243428E-7
         5806.053     1.245540E-7
         5812.453     1.247643E-7
         5818.858     1.249730E-7
         5825.272     1.251837E-7
         5831.694     1.253942E-7
         5838.123     1.256029E-7
         5844.559     1.258133E-7
         5851.002     1.260240E-7
         5857.453     1.262324E-7
         5863.907     1.264422E-7
         5870.368     1.219963E-7
         5876.843     4.005377E-8
         5883.321              0.
         5889.807              0.
           5896.3              0.
           5902.8              0.
         5909.304              0.
         5915.819              0.
          5922.34              0.
         5928.869              0.
         5935.405              0.
         5941.945              0.
         5948.492              0.
         5955.053              0.
         5961.618              0.
          5968.19              0.
         5974.767              0.
         5981.356              0.
         5987.947              0.
         5994.548              0.
         6001.157              0.
         6007.769              0.
         6014.396              0.
         6021.022              0.
         6027.663              0.
         6034.308              0.
         6040.954              0.
         6047.617              0.
          6054.28              0.
         6060.958              0.
         6067.636              0.
         6074.329              0.
         6081.021              0.
         6087.722              0.
         6094.437              0.
         6101.152              0.
         6107.878              0.
         6114.611              0.
         6121.355              0.
           6128.1              0.
         6134.853              0.
         6141.616              0.
         6148.386              0.
         6155.167              0.
          6161.95              0.
         6168.746              0.
          6175.54              0.
         6182.348              0.
         6189.163              0.
         6195.986              0.
          6202.82              0.
         6209.655              0.
         6216.497              0.
          6223.35              0.
         6230.211              0.
         6237.083              0.
         6243.955              0.
         6250.838              0.
         6257.729              0.
         6264.624              0.
          6271.53              0.
         6278.444              0.
         6285.366              0.
         6292.294              0.
         6299.231              0.
         6306.176              0.
         6313.124              0.
         6320.084              0.
         6327.051              0.
         6334.026              0.
         6341.009              0.
         6347.999              0.
         6354.994              0.
            6362.              0.
         6369.013              0.
         6376.034              0.
         6383.063              0.
           6390.1              0.
         6397.145              0.
         6404.193              0.
         6411.253              0.
         6418.321              0.
         6425.397              0.
          6432.48              0.
         6439.571              0.
          6446.67              0.
         6453.774              0.
         6460.889              0.
         6468.011              0.
         6475.142              0.
          6482.28              0.
         6489.426              0.
         6496.576              0.
         6503.738              0.
         6510.908              0.
         6518.085              0.
         6525.271              0.
         6532.465              0.
         6539.666              0.
         6546.872              0.
         6554.089              0.
         6561.314              0.
         6568.548              0.
         6575.789              0.
         6583.038              0.
         6590.295              0.
         6597.557              0.
          6604.83              0.
         6612.111              0.
           6619.4              0.
         6626.698              0.
         6634.003              0.
         6641.316              0.
         6648.634              0.
         6655.964              0.
         6663.301              0.
         6670.647              0.
         6678.001              0.
         6685.363              0.
         6692.729              0.
         6700.107              0.
         6707.494              0.
         6714.888              0.
         6722.291              0.
         6729.701              0.
          6737.12              0.
         6744.543              0.
         6751.979              0.
         6759.422              0.
         6766.874              0.
         6774.333              0.
         6781.802              0.
         6789.278              0.
         6796.759              0.
         6804.251              0.
         6811.752              0.
         6819.262              0.
          6826.78              0.
         6834.306              0.
         6841.836              0.
         6849.378              0.
         6856.929              0.
         6864.488              0.
         6872.056              0.
         6879.632              0.
         6887.216              0.
         6894.805              0.
         6902.405              0.
         6910.015              0.
         6917.632              0.
         6925.258              0.
         6932.893              0.
         6940.536              0.
         6948.183              0.
         6955.839              0.
         6963.511              0.
         6971.188              0.
         6978.873              0.
         6986.566              0.
         6994.261              0.
         7001.975              0.
         7009.694              0.
         7017.422              0.
         7025.158              0.
         7032.902              0.
         7040.652              0.
          7048.41              0.
         7056.184              0.
         7063.962              0.
          7071.75              0.
         7079.542              0.
          7087.35              0.
          7095.16              0.
         7102.981              0.
         7110.812              0.
         7118.647              0.
         7126.499              0.
         7134.351              0.
          7142.22              0.
         7150.089              0.
         7157.968              0.
         7165.863              0.
         7173.758              0.
         7181.671              0.
         7189.584              0.
         7197.514              0.
         7205.444              0.
         7213.384              0.
          7221.34              0.
         7229.297              0.
         7237.271              0.
         7245.245              0.
         7253.236              0.
         7261.228              0.
         7269.229              0.
         7277.243              0.
         7285.265              0.
           7293.3              0.
         7301.336              0.
         7309.381              0.
         7317.439              0.
         7325.506              0.
         7333.586              0.
         7341.667              0.
         7349.764              0.
         7357.863              0.
          7365.97              0.
          7374.09              0.
         7382.219              0.
         7390.362              0.
         7398.505              0.
         7406.661              0.
         7414.826              0.
         7422.996              0.
         7431.184              0.
         7439.372              0.
         7447.573              0.
         7455.783              0.
         7464.002              0.
         7472.231              0.
         7480.464              0.
          7488.71              0.
         7496.966              0.
         7505.231              0.
         7513.505              0.
         7521.788              0.
         7530.076              0.
         7538.377              0.
         7546.688              0.
         7555.007              0.
         7563.335              0.
         7571.673              0.
         7580.021              0.
         7588.373              0.
         7596.738              0.
         7605.113              0.
         7613.497              0.
          7621.89              0.
         7630.292              0.
         7638.704              0.
         7647.121              0.
         7655.551              0.
         7663.991              0.
         7672.439              0.
         7680.897              0.
         7689.365              0.
         7697.838              0.
         7706.324              0.
         7714.819              0.
         7723.324              0.
         7731.838              0.
         7740.362              0.
         7748.895              0.
         7757.434              0.
         7765.985              0.
         7774.546              0.
         7783.117              0.
         7791.697              0.
         7800.287              0.
         7808.886              0.
          7817.49              0.
         7826.108              0.
         7834.736              0.
         7843.373              0.
          7852.02              0.
         7860.676              0.
         7869.337              0.
         7878.013              0.
         7886.697              0.
         7895.392              0.
         7904.096              0.
         7912.809              0.
         7921.532              0.
         7930.261              0.
         7939.003              0.
         7947.755              0.
         7956.517              0.
         7965.288              0.
         7974.069              0.
          7982.86              0.
         7991.656     5.409320E-9
         8000.466     3.252769E-8
         8009.286     3.262775E-8
         8018.115     3.272423E-8
         8026.954     3.281718E-8
         8035.803     3.290664E-8
         8044.658     3.299255E-8
         8053.526     3.307494E-8
         8062.404     3.315386E-8
         8071.292     3.322932E-8
          8080.19     3.330123E-8
         8089.098     3.336968E-8
         8098.016     3.343471E-8
         8106.938     3.338690E-8
         8115.875     3.330592E-8
         8124.822     3.322334E-8
         8133.779     3.313918E-8
         8142.746     3.305342E-8
         8151.723     3.296606E-8
         8160.709     3.287711E-8
         8169.701     3.278664E-8
         8178.708     3.269456E-8
         8187.724     3.260089E-8
          8196.75     3.250566E-8
         8205.786     3.256507E-8
         8214.832     3.270790E-8
         8223.884     3.284568E-8
          8232.95     3.297862E-8
         8242.026     3.310662E-8
         8251.112     3.322963E-8
         8260.208     3.334778E-8
         8269.314     3.346103E-8
         8278.431     3.356939E-8
         8287.552     3.367277E-8
         8296.688     3.377137E-8
         8305.835     3.383580E-8
         8314.991     3.387932E-8
         8324.153     3.391865E-8
         8333.334     3.395389E-8
         8342.521     3.398499E-8
         8351.713     3.404162E-8
          8360.92     3.422462E-8
         8370.138     3.440470E-8
         8379.365     3.458174E-8
         8388.603     3.475576E-8
          8397.85     3.492667E-8
         8407.104     3.509502E-8
         8416.371     3.526045E-8
         8425.649     3.542268E-8
         8434.934     3.558158E-8
         8444.236     3.573734E-8
         8453.546     3.588973E-8
         8462.865     3.603873E-8
         8472.189     3.618425E-8
         8481.525     3.632635E-8
          8490.88     3.646509E-8
          8500.24     3.659888E-8
         8509.611     3.667924E-8
         8518.987     3.675624E-8
         8528.384     3.682996E-8
          8537.78     3.690025E-8
         8547.188     3.696714E-8
         8556.615     3.703067E-8
         8566.043     3.709062E-8
         8575.486     3.714710E-8
          8584.94     3.720001E-8
         8594.409     3.724931E-8
         8603.879     3.721697E-8
         8613.359     3.706980E-8
         8622.854     3.692059E-8
          8632.36     3.676943E-8
         8641.882     3.661624E-8
         8651.403     3.646029E-8
         8660.937     3.629685E-8
         8670.484     3.613140E-8
         8680.043     3.596402E-8
         8689.611     3.579468E-8
         8699.191     3.562330E-8
         8708.781     3.537012E-8
         8718.382     3.510847E-8
         8727.988     3.484596E-8
          8737.61     3.458225E-8
         8747.242     3.431754E-8
         8756.886     3.405180E-8
         8766.539     3.378505E-8
         8776.203     3.351728E-8
         8785.879     3.324844E-8
          8795.56     3.297874E-8
         8805.256     3.284543E-8
         8814.963     3.282481E-8
         8824.681     3.279985E-8
         8834.408     3.277050E-8
         8844.147     3.273669E-8
         8853.893     3.269843E-8
         8863.653     3.265561E-8
         8873.425     3.260822E-8
         8883.207     3.255621E-8
            8893.     3.249954E-8
         8902.804     3.231471E-8
         8912.618     3.182100E-8
         8922.438     3.132936E-8
         8932.274     3.083933E-8
         8942.122     3.035111E-8
         8951.979     2.986380E-8
         8961.849     2.937432E-8
         8971.728     2.888706E-8
         8981.618     2.840196E-8
         8991.515     2.791935E-8
         9001.427     2.745973E-8
         9011.351     2.712586E-8
         9021.284     2.679226E-8
         9031.229     2.645889E-8
         9041.186     2.612578E-8
         9051.147     2.579313E-8
         9061.126     2.546057E-8
         9071.115     2.512831E-8
         9081.115     2.479636E-8
         9091.126     2.446476E-8
         9101.148     2.412574E-8
         9111.182     2.372800E-8
         9121.221     2.333207E-8
         9131.276     2.293758E-8
         9141.343     2.254476E-8
          9151.42     2.215368E-8
         9161.509     2.176431E-8
         9171.608     2.137670E-8
         9181.719     2.099092E-8
         9191.836     2.060712E-8
          9201.97     2.026724E-8
         9212.113     2.010172E-8
          9222.27     1.993329E-8
         9232.436     1.976196E-8
         9242.613     1.958769E-8
         9252.798     1.940968E-8
         9262.998     1.922641E-8
          9273.21     1.904018E-8
         9283.433     1.885102E-8
         9293.667     1.865885E-8
         9303.912     1.840970E-8
         9314.169     1.807274E-8
         9324.432     1.773672E-8
         9334.711     1.740134E-8
         9345.002     1.706674E-8
         9355.304     1.673299E-8
         9365.617     1.640008E-8
         9375.941     1.606805E-8
         9386.278     1.573686E-8
          9396.62     1.540677E-8
         9406.979     1.507808E-8
          9417.35     1.475066E-8
         9427.731     1.442412E-8
         9438.124     1.409855E-8
         9448.529     1.377387E-8
          9458.94     1.345035E-8
         9469.368     1.312766E-8
         9479.807     1.280598E-8
         9490.258     1.248529E-8
          9500.72     1.217683E-8
         9511.193     1.201957E-8
         9521.679     1.186160E-8
          9532.17     1.170302E-8
         9542.679     1.154365E-8
         9553.198     1.138362E-8
         9563.729     1.122290E-8
         9574.272     1.106150E-8
         9584.828     1.089941E-8
         9595.395     1.073667E-8
         9605.967     1.044692E-8
         9616.557     1.006487E-8
         9627.158     9.690059E-9
         9637.771     9.322543E-9
         9648.396     8.962231E-9
         9659.032     8.609167E-9
         9669.681     8.263330E-9
         9680.335     7.924923E-9
         9691.007     7.593536E-9
          9701.69     7.276245E-9
         9712.386     7.001634E-9
         9723.093     6.732428E-9
         9733.812     6.468624E-9
         9744.536     6.210355E-9
         9755.279     5.955655E-9
         9766.033     5.704852E-9
           9776.8     5.459659E-9
         9787.577     5.220101E-9
         9798.367     4.986119E-9
         9809.169     4.832442E-9
         9819.978     4.693410E-9
         9830.803     4.555233E-9
         9841.641     4.417965E-9
          9852.49     4.281620E-9
         9863.352     4.146204E-9
         9874.225     4.011715E-9
          9885.11     3.878148E-9
         9896.003     3.745573E-9
         9906.912     3.580225E-9
         9917.828     3.399367E-9
         9928.767     3.222860E-9
         9939.713     3.050922E-9
          9950.67     2.883503E-9
         9961.634     2.720635E-9
          9972.61     2.562224E-9
          9983.61     2.408101E-9
         9994.616     2.258502E-9
         10005.63     2.158379E-9
         10016.66     2.102815E-9
         10027.71     2.047716E-9
         10038.76     1.993195E-9
         10049.82     1.939188E-9
          10060.9     1.885654E-9
         10071.99     1.832695E-9
          10083.1     1.780203E-9
         10094.21     1.728290E-9
         10105.34    7.816929E-10
         10116.47              0.
         10127.62     3.021269E-9
         10138.79    4.639976E-10
         10149.96     3.706032E-9
         10161.16     6.781151E-9
         10172.35     2.660490E-9
         10183.56     2.395939E-9
         10194.79     4.933858E-9
         10206.03     5.015666E-9
         10217.29     1.636896E-9
         10228.54              0.
         10239.83     2.740600E-9
         10251.11     2.678562E-9
          10262.4     2.568966E-9
         10273.72     3.376214E-9
         10285.04     5.893259E-9
         10296.39     2.436732E-9
         10307.73              0.
          10319.1     5.567104E-9
         10330.47     3.691466E-9
         10341.85              0.
         10353.26    5.659473E-10
         10364.67    8.732360E-10
          10376.1              0.
         10387.53     2.176117E-9
         10398.99    2.728612E-10
         10410.45    1.685896E-10
         10421.92     2.822776E-9
         10433.41              0.
         10444.91    4.830532E-10
         10456.43     2.047476E-9
         10467.95    4.971140E-10
          10479.5              0.
         10491.04              0.
          10502.6    1.486106E-10
         10514.19     1.252159E-9
         10525.77     1.223349E-9
         10537.38     2.070665E-9
         10548.99     1.170760E-9
         10560.63     5.704564E-9
         10572.26     1.850807E-9
         10583.91              0.
         10595.59    2.509736E-10
         10607.26    4.348398E-10
         10618.96    4.206317E-10
         10630.66    8.401653E-10
         10642.38     1.644834E-9
         10654.11     1.785523E-9
         10665.85              0.
         10677.62              0.
         10689.38              0.
         10701.17    9.027593E-10
         10712.96    3.137182E-10
         10724.77    3.012037E-10
          10736.6    9.831087E-11
         10748.43    9.327904E-10
         10760.27    7.801070E-10
         10772.14    1.989422E-10
         10784.01    2.902678E-10
          10795.9    6.903103E-10
         10807.81    3.148755E-10
         10819.72    5.868954E-12
         10831.65    1.646057E-10
         10843.57              0.
         10855.53    9.751376E-11
         10867.51     1.038457E-9
         10879.48    5.084436E-10
         10891.48    5.632457E-10
         10903.48    3.623402E-10
          10915.5    1.845592E-10
         10927.52    2.069172E-10
         10939.58    1.137083E-10
         10951.64    2.679474E-10
         10963.71    1.597863E-10
         10975.79    1.535455E-10
         10987.88    7.519579E-11
           11000.    1.344670E-10
