#  Table wf2f622wsys.tab  Mon 12:21:49 02-Jun-97

#      WAVELENGTH      THROUGHPUT
#       angstroms                

            1850.     1.206510E-6
         1851.651     4.669653E-7
         1853.301     1.462997E-7
         1854.956     1.448021E-7
         1856.611     4.365482E-7
         1858.267     8.062134E-7
         1859.925     3.062467E-7
         1861.584     2.077121E-7
         1863.246     2.785739E-7
         1864.909     3.377989E-7
         1866.572     4.114326E-7
         1868.237     5.836271E-7
         1869.904     5.776924E-7
         1871.573     2.183461E-7
         1873.242     1.139136E-7
         1874.913     2.899511E-7
         1876.585     4.536364E-7
          1878.26     3.076183E-7
         1879.937     1.743990E-7
         1881.613     2.448810E-7
         1883.292     1.883411E-7
         1884.973     1.090403E-7
         1886.654     6.455482E-8
         1888.338     6.718486E-8
         1890.023     1.243469E-7
         1891.709     3.624718E-7
         1893.396     3.836689E-7
         1895.086     2.956890E-7
         1896.775     1.839299E-7
         1898.469     9.184252E-8
         1900.163     2.130581E-8
         1901.857     4.918074E-9
         1903.555     5.811053E-9
         1905.254     4.688641E-8
         1906.953     6.738183E-8
         1908.655     4.456125E-8
         1910.357     5.446607E-9
         1912.061     3.589951E-9
         1913.768     4.123984E-9
         1915.476     3.186527E-9
         1917.184     3.390652E-9
         1918.894     1.481274E-8
         1920.606     3.909467E-8
          1922.32     6.108488E-8
         1924.035     4.807244E-8
         1925.752     4.932611E-8
          1927.47     5.044823E-8
         1929.189     9.683614E-8
          1930.91     1.160870E-7
         1932.634     7.628626E-8
         1934.358     2.014164E-8
         1936.084     1.163964E-8
         1937.811     1.450755E-8
          1939.54     3.419189E-8
          1941.27     4.297836E-8
         1943.003     2.789845E-8
         1944.737     1.031635E-8
          1946.47     1.860773E-8
         1948.207     6.593302E-8
         1949.947     1.985916E-7
         1951.685     1.784771E-7
         1953.427     1.315244E-7
         1955.171     6.532652E-8
         1956.913     2.319388E-8
          1958.66     1.588699E-8
         1960.408     1.590588E-8
         1962.157     6.122719E-9
         1963.908     1.131630E-8
         1965.658     6.876841E-8
         1967.413     1.248972E-7
         1969.169     1.330848E-7
         1970.925     8.742736E-8
         1972.684     3.206713E-8
         1974.444     1.093704E-8
         1976.205     1.025386E-8
         1977.969     2.010114E-8
         1979.734     1.558315E-8
           1981.5     1.752170E-8
         1983.268     8.688441E-8
         1985.037     2.155740E-7
         1986.809     2.968335E-7
         1988.581     2.719536E-7
         1990.355     2.041242E-7
         1992.131     1.396636E-7
         1993.908     8.701146E-8
         1995.688     5.465873E-8
         1997.467     5.084586E-8
          1999.25     7.264353E-8
         2001.034     9.703574E-8
         2002.818     1.126946E-7
         2004.606     1.115415E-7
         2006.396     7.740663E-8
         2008.184     1.351800E-8
         2009.976     8.218549E-9
         2011.769     3.388858E-8
         2013.565     5.221660E-8
         2015.362     5.120514E-8
         2017.158     4.228707E-8
         2018.958     3.087287E-8
          2020.76     2.357968E-8
         2022.563     2.140819E-8
         2024.368     1.690038E-8
         2026.173     2.536867E-8
         2027.982     6.270353E-8
         2029.791     8.094700E-8
         2031.602     5.569195E-8
         2033.414     4.466494E-8
         2035.228     4.930828E-8
         2037.044     5.435283E-8
         2038.861     5.550027E-8
         2040.681     5.468648E-8
         2042.502     5.166754E-8
         2044.324     5.342045E-8
         2046.147     7.824207E-8
         2047.974     1.066137E-7
           2049.8     9.118423E-8
          2051.63     7.795061E-8
         2053.461     7.857188E-8
         2055.291     6.378134E-8
         2057.125     4.239756E-8
         2058.961     2.933140E-8
         2060.798     3.057035E-8
         2062.637     3.647957E-8
         2064.477     3.164133E-8
         2066.318     2.460208E-8
         2068.164     2.039781E-8
         2070.007     8.043446E-9
         2071.855     4.471044E-9
         2073.704     1.129829E-8
         2075.553     3.854583E-8
         2077.405     3.784906E-8
         2079.259     2.408689E-8
         2081.113     1.610007E-8
         2082.971     1.194009E-8
         2084.829     8.149733E-9
         2086.688     8.920615E-9
          2088.55     1.491429E-8
         2090.414     2.155144E-8
         2092.279     2.972195E-8
         2094.145     3.616816E-8
         2096.014     2.368555E-8
         2097.885     9.632404E-9
         2099.756     7.692193E-9
          2101.63     1.206800E-8
         2103.503     8.289974E-9
         2105.381     6.640156E-9
          2107.26     9.166409E-9
         2109.139     7.674599E-9
         2111.022     6.186764E-9
         2112.906     1.746691E-8
         2114.789     3.682329E-8
         2116.677     4.273949E-8
         2118.564     3.614004E-8
         2120.455     4.441106E-8
         2122.348     5.742057E-8
         2124.241     5.357585E-8
         2126.135     3.047822E-8
         2128.033     1.234997E-8
         2129.932     1.237158E-8
         2131.832     2.511003E-8
         2133.734     2.004166E-8
         2135.637     9.703505E-9
         2137.544     8.748866E-9
          2139.45     2.198768E-8
         2141.359     4.232662E-8
          2143.27     5.094339E-8
         2145.182     4.541122E-8
         2147.096     3.191604E-8
         2149.011     1.717513E-8
         2150.929     1.017495E-8
         2152.848     1.207091E-8
         2154.768     1.276839E-8
         2156.692     9.024782E-9
         2158.615     8.936117E-9
         2160.541     1.399084E-8
         2162.469     1.945296E-8
         2164.397     2.079928E-8
          2166.33     1.175756E-8
         2168.263     6.148531E-9
         2170.196     6.101904E-9
         2172.133     8.515277E-9
          2174.07     9.857978E-9
         2176.011     5.466126E-9
         2177.953     7.796102E-9
         2179.895     1.609031E-8
          2181.84     1.728678E-8
         2183.787     2.862718E-8
         2185.735     3.548700E-8
         2187.686     2.367894E-8
         2189.637     1.814775E-8
          2191.59     1.993192E-8
         2193.546     2.614323E-8
         2195.503     2.235270E-8
         2197.462     1.716454E-8
         2199.423     1.545578E-8
         2201.385     1.361374E-8
         2203.348     8.983843E-9
         2205.315     8.675926E-9
         2207.283     1.546193E-8
         2209.252     2.431880E-8
         2211.222     3.565487E-8
         2213.196     4.086993E-8
          2215.17     4.063108E-8
         2217.147     3.090448E-8
         2219.125     1.710136E-8
         2221.104     1.191491E-8
         2223.086     1.358510E-8
         2225.071     1.757848E-8
         2227.055     1.571694E-8
         2229.042     1.017837E-8
         2231.031     1.146912E-8
         2233.021     1.257020E-8
         2235.015     8.369462E-9
         2237.008     5.826560E-9
         2239.003     6.575047E-9
         2241.002     1.252374E-8
         2242.999     2.060478E-8
         2245.002     1.823565E-8
         2247.005     1.040001E-8
         2249.009     9.134481E-9
         2251.016     1.299260E-8
         2253.024     1.743601E-8
         2255.033     1.978185E-8
         2257.046     1.700097E-8
         2259.061     1.363128E-8
         2261.075     1.390710E-8
         2263.092     1.581852E-8
         2265.112     1.492605E-8
         2267.134     1.277225E-8
         2269.156     1.014636E-8
         2271.181     7.188804E-9
         2273.207     8.387830E-9
         2275.234     1.407905E-8
         2277.266     2.111464E-8
         2279.296     2.558800E-8
          2281.33     2.705210E-8
         2283.366     1.993024E-8
         2285.402     1.127601E-8
         2287.441     1.159786E-8
         2289.483     2.563159E-8
         2291.525     4.547595E-8
          2293.57     5.061250E-8
         2295.615     3.864662E-8
         2297.663     2.864584E-8
         2299.715     2.154446E-8
         2301.765     1.224477E-8
          2303.82     8.065623E-9
         2305.876     1.062678E-8
         2307.932     1.396457E-8
         2309.992     1.368532E-8
         2312.051     1.938048E-8
         2314.116     2.572447E-8
          2316.18     1.772373E-8
         2318.246     1.690394E-8
         2320.315     3.020314E-8
         2322.385     3.955838E-8
         2324.457     3.194608E-8
         2326.531     1.536536E-8
         2328.606     9.618787E-9
         2330.685     8.109416E-9
         2332.764     7.357973E-9
         2334.845     7.394994E-9
         2336.927     8.333283E-9
         2339.012     9.510025E-9
         2341.101     8.467084E-9
         2343.188     7.543075E-9
         2345.279     7.579954E-9
         2347.372     7.616927E-9
         2349.467     7.653973E-9
         2351.562     7.690608E-9
         2353.661     7.727189E-9
         2355.759     7.763790E-9
         2357.862     7.800511E-9
         2359.966     7.837301E-9
         2362.071     7.873498E-9
         2364.179     8.068693E-9
         2366.288     1.126360E-8
         2368.398     2.346941E-8
         2370.512     3.376107E-8
         2372.628     2.299335E-8
         2374.744     1.136831E-8
         2376.863     2.299603E-8
         2378.983     4.920402E-8
         2381.105     5.634089E-8
          2383.23     4.873962E-8
         2385.357     4.613454E-8
         2387.485     4.803934E-8
         2389.615     5.194933E-8
         2391.747     5.243529E-8
         2393.881     5.308748E-8
         2396.017     6.824732E-8
         2398.154     8.650454E-8
         2400.293     7.274812E-8
         2402.435     5.689614E-8
          2404.58     6.111861E-8
         2406.724     6.380623E-8
         2408.872     6.415495E-8
         2411.022     7.415319E-8
         2413.171     8.232478E-8
         2415.326     7.534324E-8
         2417.479     6.265402E-8
         2419.637     5.017565E-8
         2421.796     5.231778E-8
         2423.957     5.017676E-8
          2426.12     3.778372E-8
         2428.284     3.597553E-8
         2430.451     4.348568E-8
         2432.619     5.095832E-8
         2434.789     5.993008E-8
         2436.962     6.617637E-8
         2439.136     5.824350E-8
         2441.312     5.182683E-8
          2443.49     5.232311E-8
          2445.67     4.472941E-8
         2447.853     3.123101E-8
         2450.036     2.327471E-8
         2452.222     3.072036E-8
         2454.409     3.343533E-8
           2456.6     2.156913E-8
         2458.792     1.703910E-8
         2460.985     1.522494E-8
          2463.18     1.252877E-8
         2465.379     1.138168E-8
         2467.579     1.298087E-8
         2469.778     2.227189E-8
         2471.983     2.100940E-8
          2474.19     1.362899E-8
         2476.396     9.748605E-9
         2478.606     1.110203E-8
         2480.817     2.234445E-8
         2483.029     4.226356E-8
         2485.247     4.366187E-8
         2487.462     3.088828E-8
         2489.682     2.077054E-8
         2491.904     2.293335E-8
         2494.125     2.011066E-8
         2496.353     1.696408E-8
         2498.579     2.645891E-8
         2500.808     2.720057E-8
          2503.04     3.470387E-8
         2505.272     5.173140E-8
         2507.509     5.295340E-8
         2509.745     5.268658E-8
         2511.985     5.947387E-8
         2514.225     5.853219E-8
         2516.468     4.144436E-8
         2518.714     3.178220E-8
         2520.962     3.788677E-8
          2523.21     3.680033E-8
         2525.462     2.414945E-8
         2527.715     1.872749E-8
         2529.971     1.649342E-8
         2532.229     1.741367E-8
         2534.486     3.400025E-8
         2536.748     3.605647E-8
          2539.01     3.276379E-8
         2541.277     3.171054E-8
         2543.545     1.602159E-8
         2545.813     1.078398E-8
         2548.084     1.072642E-8
         2550.358     1.500739E-8
         2552.635     3.382225E-8
         2554.911     4.422053E-8
         2557.191     3.645657E-8
         2559.471     3.310157E-8
         2561.755     2.925509E-8
         2564.042     2.097667E-8
         2566.329     2.671392E-8
         2568.619     2.238966E-8
         2570.908     1.786362E-8
         2573.205     2.306002E-8
           2575.5     3.533290E-8
         2577.797     3.669449E-8
         2580.097     4.030660E-8
         2582.399     5.215336E-8
         2584.704     4.655815E-8
          2587.01     3.974979E-8
         2589.318     4.913545E-8
         2591.629     5.911652E-8
          2593.94     4.837915E-8
         2596.254     4.919420E-8
         2598.573     5.604462E-8
         2600.889     5.867258E-8
          2603.21     5.516271E-8
         2605.532     4.132216E-8
         2607.856     3.719477E-8
         2610.185     4.903051E-8
         2612.512     5.534724E-8
         2614.843     4.878966E-8
         2617.177     3.507722E-8
          2619.51     3.209638E-8
         2621.849     3.699130E-8
         2624.188     5.032599E-8
         2626.528     4.839636E-8
         2628.873     3.986283E-8
         2631.217     3.476304E-8
         2633.566     3.806256E-8
         2635.916     3.381394E-8
         2638.267     2.062665E-8
          2640.62     1.593111E-8
         2642.977     2.163808E-8
         2645.334     3.047193E-8
         2647.695     3.736193E-8
         2650.057     4.339983E-8
         2652.422     3.626541E-8
         2654.788     2.741766E-8
         2657.157     2.941287E-8
         2659.526     2.516976E-8
         2661.899     2.520202E-8
         2664.275     3.578192E-8
         2666.652     4.491672E-8
         2669.031     5.064998E-8
         2671.412     4.925175E-8
         2673.796     5.242552E-8
         2676.181     5.065195E-8
          2678.57     2.763304E-8
          2680.96     2.757870E-8
          2683.35     4.037654E-8
         2685.746     5.027945E-8
          2688.14     4.870835E-8
          2690.54     5.454607E-8
         2692.941     6.261141E-8
         2695.343     3.670251E-8
         2697.748     2.273314E-8
         2700.153     2.456266E-8
         2702.563     1.945492E-8
         2704.975     2.068616E-8
         2707.387     3.238262E-8
         2709.804     4.781782E-8
         2712.222     6.570458E-8
         2714.642     6.759344E-8
         2717.063     5.513223E-8
         2719.486     4.145971E-8
         2721.915     2.610310E-8
         2724.343     5.353892E-8
         2726.772     7.440299E-8
         2729.205     5.246179E-8
          2731.64     4.025375E-8
         2734.078     5.238192E-8
         2736.517     4.612463E-8
         2738.958     3.137227E-8
         2741.402     3.193809E-8
         2743.849     3.166436E-8
         2746.296     3.616378E-8
         2748.747     2.975518E-8
         2751.198     2.728413E-8
         2753.653     4.400069E-8
         2756.111     3.172122E-8
         2758.569     3.299710E-8
         2761.031     4.863929E-8
         2763.495     5.452029E-8
         2765.958     6.557847E-8
         2768.427     5.767957E-8
         2770.898     3.254350E-8
         2773.369     3.719613E-8
         2775.844     7.294054E-8
          2778.32     6.734109E-8
         2780.799     4.699947E-8
          2783.28     4.998340E-8
         2785.764     6.548713E-8
         2788.249     6.977371E-8
         2790.736     7.652836E-8
         2793.227     7.465975E-8
          2795.72     6.618001E-8
         2798.213     6.704257E-8
         2800.709     5.953405E-8
         2803.209     5.201411E-8
         2805.709     5.380089E-8
         2808.213     4.680427E-8
         2810.718     5.259106E-8
         2813.226     3.989836E-8
         2815.736     3.325691E-8
         2818.247     3.199267E-8
         2820.764     5.691528E-8
         2823.278     8.655013E-8
         2825.798     8.677772E-8
          2828.32     7.674409E-8
         2830.843     7.834172E-8
         2833.369     9.607666E-8
         2835.898     8.534778E-8
         2838.426     6.182129E-8
         2840.959     3.914616E-8
         2843.495     3.379280E-8
         2846.031     4.215969E-8
         2848.571     5.914023E-8
         2851.112     5.849077E-8
         2853.655     5.079818E-8
         2856.202     7.025806E-8
         2858.751     7.617690E-8
         2861.301     5.835903E-8
         2863.853     3.531621E-8
         2866.407     3.710315E-8
         2868.965     6.372847E-8
         2871.526     6.905083E-8
         2874.087     6.022143E-8
         2876.652     5.361072E-8
         2879.218     4.909799E-8
         2881.788     6.669568E-8
         2884.358     6.907477E-8
         2886.931     6.006918E-8
         2889.507     6.071539E-8
         2892.084     6.247969E-8
         2894.666     6.650782E-8
         2897.248     7.125598E-8
         2899.832     8.716206E-8
         2902.421     6.594468E-8
          2905.01     4.337435E-8
         2907.601     4.845932E-8
         2910.198     6.554442E-8
          2912.79     6.735782E-8
         2915.392     8.633926E-8
         2917.992     8.975105E-8
         2920.594     6.077908E-8
         2923.203     4.670061E-8
         2925.807     5.222346E-8
          2928.42     4.864791E-8
         2931.033     4.220857E-8
         2933.646     3.727431E-8
         2936.266     5.027059E-8
         2938.885     6.725998E-8
         2941.506     7.263083E-8
         2944.131     7.475627E-8
         2946.757     6.120873E-8
         2949.387     5.170503E-8
         2952.018     4.313030E-8
         2954.653     3.706512E-8
          2957.29     3.498591E-8
         2959.926     2.472483E-8
         2962.567     4.134299E-8
          2965.21     4.165789E-8
         2967.856     3.379954E-8
         2970.505     1.727782E-8
         2973.155     1.235326E-8
         2975.808     1.512625E-8
         2978.461     2.389310E-8
         2981.121     5.405790E-8
          2983.78     5.445643E-8
         2986.441     2.831213E-8
         2989.104     3.002801E-8
         2991.772     3.566962E-8
         2994.442     3.037801E-8
         2997.113     3.406824E-8
         2999.788     4.993436E-8
         3002.464     5.373309E-8
         3005.142     5.753875E-8
         3007.826     4.614114E-8
         3010.507     2.968096E-8
         3013.194     2.304061E-8
         3015.883     2.549655E-8
         3018.573     3.077946E-8
         3021.267     3.951861E-8
          3023.96     5.813657E-8
          3026.66     5.446977E-8
          3029.36     3.830625E-8
         3032.062     7.576448E-8
          3034.77     7.714019E-8
         3037.475     4.395144E-8
         3040.186     2.613202E-8
         3042.897     2.235500E-8
         3045.612     2.430992E-8
         3048.332     1.937677E-8
         3051.051     1.407663E-8
         3053.772     3.028794E-8
         3056.497     5.094464E-8
         3059.222     2.726285E-8
         3061.954     1.217765E-8
         3064.685     2.047621E-8
         3067.418     2.844738E-8
         3070.156     1.540766E-8
         3072.896     1.615063E-8
         3075.637     3.420002E-8
          3078.38     3.294353E-8
         3081.126     2.048894E-8
         3083.877     1.921519E-8
         3086.628     2.241153E-8
         3089.381     2.679557E-8
         3092.137     2.705633E-8
         3094.895     2.794564E-8
         3097.659     3.261242E-8
         3100.422     1.516369E-8
         3103.187     1.940409E-8
         3105.955     5.298740E-8
         3108.729     5.583267E-8
         3111.501     2.748655E-8
         3114.277     2.170137E-8
         3117.056     4.282185E-8
         3119.836     2.667047E-8
         3122.621     1.516355E-8
         3125.406     2.043654E-8
         3128.195     3.981634E-8
         3130.985     4.528060E-8
         3133.778     3.526425E-8
         3136.575     2.825100E-8
         3139.373     5.770455E-8
         3142.175     6.829605E-8
         3144.979     5.482563E-8
         3147.784     5.639972E-8
         3150.592     3.811621E-8
         3153.405     2.304844E-8
         3156.218     2.275476E-8
         3159.035     1.295199E-8
         3161.851     1.307671E-8
         3164.674     1.494541E-8
         3167.497     3.688233E-8
         3170.322     4.282466E-8
         3173.152     1.575811E-8
         3175.982     2.233829E-8
         3178.816     5.726600E-8
         3181.652     5.158644E-8
          3184.49     4.020920E-8
         3187.333     2.614162E-8
         3190.175     1.340201E-8
         3193.022     3.065528E-8
          3195.87     3.824243E-8
         3198.722     4.480058E-8
         3201.577     4.836722E-8
         3204.433     2.152625E-8
         3207.291     3.308137E-8
         3210.151     4.147360E-8
         3213.018     2.205100E-8
         3215.884     2.789323E-8
         3218.752     2.613530E-8
         3221.623     1.330611E-8
         3224.499     1.213572E-8
         3227.376     1.703332E-8
         3230.255     2.838332E-8
         3233.136     2.384858E-8
          3236.02     4.190577E-8
         3238.908     5.246637E-8
         3241.799     2.502557E-8
          3244.69     1.750820E-8
         3247.584     1.734443E-8
         3250.485     1.282982E-8
         3253.384     1.490678E-8
         3256.286     3.160218E-8
         3259.192     3.803794E-8
         3262.097     2.513868E-8
          3265.01     2.547720E-8
         3267.922     1.989076E-8
         3270.837     3.204827E-8
         3273.758     2.160411E-8
         3276.675     2.601051E-8
         3279.601     4.316098E-8
         3282.526     5.216586E-8
         3285.454     5.616891E-8
         3288.388     4.605756E-8
         3291.319     4.047389E-8
         3294.257     3.943793E-8
         3297.195     2.630427E-8
         3300.137     1.452826E-8
         3303.083     3.272638E-8
         3306.029     5.876492E-8
         3308.979     2.595189E-8
         3311.931     1.543074E-8
         3314.885     3.154957E-8
         3317.844     3.668420E-8
         3320.803     6.013649E-8
         3323.767     6.531405E-8
         3326.731     3.695128E-8
           3329.7     1.908690E-8
          3332.67     4.559167E-8
         3335.643     3.803821E-8
         3338.622     2.816472E-8
         3341.599     4.628158E-8
          3344.58     2.128570E-8
         3347.563     3.054316E-8
         3350.551     3.549636E-8
         3353.541     1.706429E-8
         3356.532     2.088829E-8
         3359.528     3.070348E-8
         3362.524     2.402838E-8
         3365.525     3.254577E-8
         3368.527     5.762000E-8
         3371.532     8.372824E-8
         3374.541     7.083422E-8
         3377.551     4.882237E-8
         3380.565     3.767409E-8
         3383.582     2.064101E-8
         3386.598     1.803495E-8
         3389.623     2.657955E-8
         3392.646     2.134295E-8
         3395.672     3.434555E-8
         3398.705     4.439545E-8
         3401.732     7.277794E-8
          3404.77     1.092071E-7
         3407.807     1.591974E-7
         3410.847     1.176297E-7
         3413.893     1.395288E-7
         3416.938     1.388150E-7
         3419.985     2.867105E-8
         3423.038     1.445152E-8
         3426.089     2.773726E-8
         3429.148     5.232812E-8
         3432.207     3.737270E-8
         3435.268     2.156627E-8
         3438.334     5.342698E-8
         3441.401     8.513070E-8
         3444.473     7.283375E-8
         3447.545     5.413943E-8
         3450.622     5.851317E-8
         3453.701     5.894880E-8
         3456.782     6.848737E-8
         3459.865     3.571034E-8
         3462.951     5.694508E-8
         3466.042     5.600794E-8
         3469.135     3.513133E-8
         3472.229     1.570904E-8
         3475.326     5.840799E-8
         3478.426     5.261989E-8
         3481.532     2.658670E-8
         3484.638     3.077592E-8
         3487.746     3.126122E-8
         3490.859     4.433062E-8
         3493.972     4.362313E-8
         3497.091     3.049040E-8
          3500.21     4.961025E-8
         3503.334     6.654930E-8
          3506.46     5.726303E-8
         3509.586     3.845314E-8
          3512.72     7.223619E-8
         3515.852     1.023637E-7
         3518.989     5.813106E-8
          3522.13     1.663342E-8
         3525.271     1.499851E-8
         3528.418     5.328191E-8
         3531.563     7.489898E-8
         3534.717     6.510631E-8
          3537.87     6.400099E-8
         3541.025     2.690729E-8
         3544.188     3.496764E-8
         3547.349     7.352920E-8
         3550.513     1.068313E-7
         3553.679     6.607047E-8
         3556.849     1.820236E-8
         3560.026     1.896160E-8
         3563.201     5.821585E-8
         3566.379     9.508155E-8
         3569.562     6.849820E-8
         3572.746     2.795996E-8
         3575.935     1.637545E-8
         3579.124     5.052207E-8
         3582.316     8.065130E-8
         3585.513     7.736262E-8
         3588.714     5.648682E-8
         3591.915     6.107249E-8
         3595.118     7.491823E-8
         3598.325     4.179172E-8
         3601.538     2.321189E-8
         3604.751     4.360229E-8
         3607.966     5.616426E-8
         3611.184     9.282844E-8
         3614.409     6.597907E-8
         3617.633     4.274601E-8
         3620.859     4.524732E-8
         3624.089     3.388138E-8
         3627.322     3.626944E-8
         3630.561     7.764439E-8
         3633.799     5.319251E-8
          3637.04     4.991256E-8
         3640.286     3.540015E-8
         3643.533     2.938023E-8
         3646.785     2.732029E-8
         3650.038     3.306319E-8
         3653.295     4.138119E-8
         3656.556     2.457353E-8
         3659.815     2.876046E-8
         3663.082     5.868901E-8
         3666.353     3.496553E-8
         3669.621     2.847883E-8
         3672.896     3.811036E-8
         3676.172     3.849547E-8
         3679.451     6.583532E-8
         3682.737     4.189965E-8
         3686.022     5.014915E-8
         3689.309     6.340405E-8
           3692.6     7.541679E-8
         3695.896     5.441553E-8
         3699.194     5.695768E-8
         3702.494     4.698398E-8
         3705.798     4.700211E-8
         3709.101     5.652128E-8
         3712.412     7.454943E-8
         3715.725     4.987170E-8
         3719.039     1.824038E-8
         3722.358     2.473621E-8
         3725.678     2.918988E-8
         3729.004     1.570103E-8
          3732.33     3.354421E-8
         3735.659     3.333732E-8
         3738.995     1.678201E-8
          3742.33     1.674982E-8
         3745.668     3.638322E-8
         3749.009     4.952053E-8
         3752.354     6.123419E-8
         3755.703     3.768467E-8
         3759.053     2.348204E-8
         3762.408     5.450880E-8
         3765.764     2.863934E-8
         3769.125     2.023332E-8
         3772.487     2.638977E-8
         3775.852     4.680594E-8
         3779.222     6.209979E-8
         3782.594     5.250220E-8
         3785.968     2.652625E-8
         3789.345     4.193207E-8
         3792.725     4.141191E-8
         3796.112     5.627745E-8
         3799.498     5.835060E-8
         3802.887     4.511665E-8
         3806.279     3.311112E-8
         3809.676     3.551682E-8
         3813.076     3.940265E-8
         3816.477     2.754787E-8
         3819.881     1.658700E-8
          3823.29     2.144272E-8
           3826.7     2.032205E-8
         3830.116     1.691323E-8
         3833.532     3.143015E-8
         3836.951     3.044983E-8
         3840.378     5.078276E-8
         3843.803     5.539012E-8
         3847.232     5.960495E-8
         3850.663     6.695256E-8
         3854.102     7.500453E-8
          3857.54     4.515359E-8
          3860.98     2.031759E-8
         3864.426     3.089998E-8
         3867.875     2.360729E-8
         3871.325     2.065139E-8
         3874.778     5.063033E-8
         3878.234     5.535760E-8
         3881.695     2.786216E-8
         3885.157     5.420445E-8
         3888.625     3.096781E-8
         3892.094     3.050398E-8
         3895.565     4.259045E-8
         3899.044     6.600970E-8
         3902.521     7.477128E-8
         3906.002     8.523430E-8
         3909.489     8.308569E-8
         3912.975     7.493127E-8
         3916.468     9.127801E-8
         3919.961     1.175871E-7
         3923.457     1.571793E-7
         3926.961     1.719098E-7
         3930.462     1.849145E-7
         3933.969     2.432869E-7
         3937.478     2.798478E-7
         3940.992     3.031828E-7
          3944.51     3.182972E-7
         3948.028     3.217326E-7
          3951.55     3.383077E-7
         3955.074     3.662891E-7
         3958.606     3.557327E-7
         3962.137     3.525821E-7
         3965.671     3.872597E-7
          3969.21     4.043082E-7
          3972.75     4.007112E-7
         3976.296     3.966911E-7
         3979.843     4.380293E-7
         3983.395     4.643166E-7
          3986.95     4.725761E-7
         3990.504     4.859095E-7
         3994.065     5.437582E-7
          3997.63     5.779635E-7
         4001.196     6.181809E-7
         4004.767     6.702411E-7
         4008.339     7.027086E-7
         4011.914     7.540752E-7
         4015.494     8.231108E-7
         4019.078     8.693739E-7
         4022.663     9.182113E-7
         4026.251     9.610534E-7
         4029.844     1.010761E-6
         4033.441     1.043422E-6
         4037.039     1.044418E-6
         4040.639     1.046761E-6
         4044.243     1.043979E-6
         4047.855     1.000747E-6
         4051.465     9.992161E-7
         4055.079     9.777190E-7
         4058.698     9.642471E-7
         4062.316     9.310223E-7
         4065.944     8.921000E-7
          4069.57     8.909570E-7
           4073.2     9.068921E-7
         4076.838     9.312793E-7
         4080.472     9.395560E-7
         4084.114     9.493364E-7
         4087.756     9.773368E-7
         4091.405     1.037783E-6
         4095.056     1.103974E-6
         4098.708     1.151941E-6
         4102.367     1.208348E-6
         4106.026     1.260484E-6
         4109.688     1.329649E-6
         4113.356     1.378124E-6
         4117.025     1.406250E-6
         4120.699     1.393654E-6
         4124.375     1.387951E-6
         4128.056     1.374275E-6
         4131.738     1.308592E-6
         4135.423     1.251905E-6
         4139.116     1.172177E-6
         4142.808     1.086764E-6
         4146.503     1.016100E-6
         4150.201     9.637581E-7
         4153.903     8.672982E-7
         4157.613     8.172001E-7
         4161.321     7.641221E-7
         4165.033     7.463865E-7
         4168.748     7.275858E-7
         4172.466     6.934802E-7
         4176.192     7.085991E-7
         4179.917     7.056009E-7
         4183.645     7.092354E-7
         4187.379     7.542492E-7
         4191.116     8.073537E-7
         4194.854     8.565794E-7
         4198.596     9.328996E-7
         4202.343     1.030139E-6
         4206.094     1.161715E-6
         4209.845     1.300827E-6
         4213.603     1.440916E-6
         4217.358     1.594014E-6
         4221.123     1.707343E-6
          4224.89     1.764339E-6
         4228.658     1.790115E-6
         4232.432     1.765105E-6
         4236.208     1.641949E-6
         4239.988     1.511515E-6
          4243.77     1.341520E-6
         4247.555     1.168195E-6
         4251.348     1.028191E-6
          4255.14     8.748259E-7
         4258.936     7.335512E-7
         4262.734     6.348135E-7
         4266.537     5.435251E-7
         4270.347     4.504965E-7
         4274.155     3.505527E-7
         4277.968     2.552300E-7
         4281.786     1.659802E-7
         4285.605     1.013353E-7
          4289.43     1.081019E-7
         4293.256     5.248610E-8
         4297.085     4.266825E-8
         4300.922     4.673122E-8
         4304.759     5.761991E-8
         4308.598     9.588049E-8
         4312.441     1.400035E-7
          4316.29     1.100174E-7
         4320.142     6.024143E-8
         4323.996     1.818456E-8
         4327.854     1.816610E-8
         4331.715     1.818142E-8
         4335.581     1.819675E-8
         4339.448     1.821209E-8
         4343.318     1.822723E-8
         4347.195     1.824237E-8
         4351.072     1.825746E-8
         4354.956     1.827240E-8
          4358.84     1.828734E-8
         4362.728     1.830243E-8
         4366.624     1.831762E-8
         4370.519     1.833277E-8
         4374.417     1.834773E-8
         4378.318     1.836271E-8
         4382.229     3.396508E-8
         4386.137     2.351599E-7
         4390.049     5.623367E-7
         4393.967     6.905431E-7
         4397.889     8.889318E-7
         4401.812     9.679029E-7
         4405.738     1.130813E-6
         4409.667     1.196528E-6
         4413.603     1.449764E-6
         4417.542     1.606252E-6
         4421.482     1.885784E-6
         4425.426     2.046906E-6
         4429.373     2.135580E-6
         4433.329     2.144801E-6
         4437.283     2.188596E-6
         4441.241     2.154713E-6
         4445.205     1.993296E-6
         4449.169     1.819684E-6
          4453.14     1.570364E-6
         4457.112     1.372844E-6
         4461.088     1.136770E-6
         4465.069     8.785486E-7
         4469.052     6.719217E-7
         4473.041     4.906707E-7
          4477.03     3.451246E-7
         4481.028     2.447634E-7
         4485.022     1.686922E-7
         4489.025     1.034317E-7
         4493.032     6.629363E-8
         4497.039     6.335026E-8
         4501.053     5.677637E-8
         4505.067     4.150385E-8
         4509.086     4.650811E-8
         4513.107     4.701626E-8
         4517.136     4.615827E-8
         4521.167     5.437470E-8
           4525.2     6.651951E-8
         4529.238     6.451127E-8
         4533.281     4.753482E-8
         4537.324     5.712810E-8
         4541.371     5.171981E-8
         4545.422     4.357670E-8
         4549.479     5.601548E-8
         4553.539     6.174989E-8
           4557.6     4.409424E-8
         4561.668     5.580252E-8
         4565.734     7.529547E-8
         4569.809     6.793994E-8
         4573.887     4.785365E-8
         4577.967     5.519538E-8
         4582.053     5.701967E-8
         4586.142     5.727585E-8
         4590.233     6.292080E-8
         4594.327     5.589527E-8
         4598.425     6.616525E-8
         4602.529     4.872368E-8
         4606.637     4.116978E-8
         4610.746     3.529074E-8
          4614.86     4.580698E-8
         4618.979     5.302583E-8
         4623.097     4.901316E-8
         4627.223     3.712771E-8
          4631.35     4.650141E-8
         4635.483     5.073361E-8
         4639.621     5.566119E-8
         4643.759     5.777535E-8
           4647.9     5.091196E-8
         4652.046     7.390014E-8
         4656.198     6.944087E-8
         4660.354     5.175488E-8
         4664.511     6.039767E-8
         4668.673     5.684855E-8
          4672.84     6.807332E-8
         4677.005     7.156122E-8
          4681.18     6.726062E-8
         4685.355     6.756850E-8
         4689.537     7.201353E-8
         4693.722     6.182110E-8
         4697.909     5.492381E-8
         4702.102     4.674589E-8
         4706.293     6.283947E-8
         4710.493     6.623094E-8
         4714.697     6.358469E-8
         4718.902     5.886592E-8
         4723.114     6.495222E-8
          4727.33     5.358211E-8
         4731.543     5.976585E-8
         4735.766     5.473352E-8
          4739.99     5.421684E-8
         4744.221     6.232187E-8
         4748.455     6.564207E-8
          4752.69     7.240578E-8
         4756.932     6.112186E-8
         4761.172     5.914401E-8
         4765.421     5.478067E-8
         4769.674     6.453246E-8
         4773.929     7.019835E-8
         4778.189     7.333087E-8
         4782.454     6.796111E-8
         4786.719     7.302830E-8
         4790.989     5.439598E-8
         4795.262     5.350932E-8
         4799.542     6.325029E-8
         4803.826     6.737059E-8
          4808.11     6.397870E-8
         4812.401     5.761719E-8
         4816.696     5.935055E-8
         4820.993     5.646120E-8
         4825.292     6.838690E-8
         4829.597     6.841998E-8
         4833.907     7.444581E-8
         4838.221     6.061675E-8
         4842.537     6.453914E-8
         4846.855     6.373705E-8
         4851.179     6.227237E-8
         4855.508     7.250510E-8
         4859.842     6.716364E-8
         4864.177     6.529061E-8
         4868.518     7.100803E-8
         4872.863     6.926005E-8
         4877.209     5.809799E-8
          4881.56     6.355982E-8
         4885.914     7.234477E-8
         4890.277     6.515318E-8
         4894.639     7.183937E-8
         4899.004     7.144683E-8
         4903.376     6.603264E-8
         4907.748     5.509228E-8
          4912.13     6.492980E-8
         4916.512     6.949482E-8
         4920.897     5.990343E-8
         4925.289     7.038368E-8
         4929.685     7.511733E-8
         4934.082     6.579970E-8
         4938.482     6.332343E-8
         4942.887     5.850608E-8
         4947.301     7.765473E-8
         4951.714     7.535642E-8
         4956.131     6.882293E-8
         4960.554     7.294640E-8
         4964.976     6.862319E-8
          4969.41     6.868362E-8
         4973.842     5.377441E-8
         4978.278     6.752783E-8
         4982.724     7.722356E-8
         4987.168     7.000916E-8
         4991.617     6.979922E-8
         4996.069     7.639279E-8
         5000.528     7.661315E-8
         5004.991     7.052250E-8
         5009.455     6.499816E-8
         5013.923     4.600987E-8
         5018.398     7.053199E-8
         5022.874     7.137875E-8
         5027.357     7.048497E-8
         5031.841     7.902234E-8
         5036.329     5.844928E-8
         5040.827     6.558918E-8
         5045.323     8.230560E-8
         5049.823     7.905427E-8
         5054.327     6.675587E-8
         5058.838     7.608486E-8
         5063.353     8.027699E-8
         5067.869     7.370584E-8
          5072.39     7.056673E-8
         5076.919     6.153197E-8
         5081.448     6.647430E-8
          5085.98     6.543436E-8
         5090.516     8.047586E-8
          5095.06     7.679044E-8
         5099.607     8.445179E-8
         5104.155     8.118773E-8
         5108.708     8.164182E-8
         5113.265     1.021275E-7
         5117.828     7.108192E-8
         5122.396     9.372430E-8
         5126.965     9.293753E-8
         5131.538     9.649785E-8
          5136.12     9.155013E-8
         5140.701     8.652255E-8
         5145.287     8.799109E-8
         5149.876     9.360409E-8
         5154.472     9.509802E-8
         5159.072     9.097386E-8
         5163.674     9.314558E-8
         5168.283     1.152276E-7
         5172.895     1.152972E-7
         5177.506     1.256025E-7
         5182.127     1.424413E-7
         5186.749     1.783411E-7
         5191.378     2.231011E-7
         5196.012     2.924335E-7
         5200.646     3.238894E-7
         5205.285     4.020372E-7
         5209.928     5.929327E-7
         5214.577     8.140831E-7
         5219.231     1.143515E-6
         5223.887     1.607285E-6
         5228.549     2.261677E-6
         5233.215     3.116786E-6
          5237.88     4.268966E-6
         5242.555     5.607650E-6
         5247.231     7.097375E-6
         5251.914     8.692639E-6
         5256.601     1.022848E-5
          5261.29     1.179188E-5
         5265.985     1.340407E-5
          5270.68     1.522942E-5
         5275.383     1.754991E-5
         5280.092     2.070656E-5
         5284.801     2.500336E-5
         5289.518     3.096803E-5
         5294.239     3.904869E-5
         5298.958     5.006260E-5
         5303.687     6.499986E-5
         5308.418     8.589275E-5
         5313.155     1.144120E-4
         5317.897     1.530123E-4
         5322.641     2.064085E-4
         5327.391     2.791586E-4
          5332.14     3.760792E-4
         5336.899     5.023132E-4
         5341.662     6.641842E-4
         5346.426     8.257073E-4
         5351.198     9.946037E-4
         5355.974     0.001164678
         5360.751     0.001335838
         5365.532     0.001508171
         5370.318     0.001797681
         5375.111     0.002257921
         5379.908     0.002809902
         5384.707     0.003469852
         5389.513     0.004246602
         5394.323      0.00513404
         5399.131      0.00616317
          5403.95     0.007326274
          5408.77     0.008638667
         5413.597      0.01008972
         5418.429      0.01170449
         5423.262      0.01345683
         5428.099      0.01535822
          5432.94      0.01739716
         5437.792      0.01958097
         5442.643      0.02191051
         5447.497      0.02434719
         5452.359      0.02695556
         5457.225      0.02966126
         5462.092      0.03248844
         5466.964      0.03542249
          5471.84      0.03841123
         5476.724      0.04145734
         5481.612      0.04454661
         5486.501      0.04768444
         5491.398      0.05078181
         5496.293       0.0538273
         5501.198      0.05683922
         5506.108      0.05982168
         5511.019      0.06280174
         5515.938      0.06567498
          5520.86      0.06842798
         5525.785      0.07113003
         5530.713      0.07376515
         5535.646      0.07625818
         5540.587      0.07865719
         5545.532      0.08093882
         5550.478      0.08307704
         5555.432      0.08509158
         5560.387      0.08702093
         5565.347      0.08886804
         5570.313      0.09064351
         5575.282        0.092305
         5580.258      0.09392885
         5585.238      0.09549502
          5590.22       0.0969767
         5595.206      0.09843957
         5600.197      0.09982543
         5605.198       0.1010459
         5610.197        0.102191
         5615.201       0.1033129
         5620.213       0.1043851
         5625.226        0.105445
         5630.246       0.1064936
         5635.268       0.1074886
         5640.294       0.1084987
         5645.328        0.109549
         5650.367       0.1105711
         5655.406       0.1116047
         5660.451       0.1125977
         5665.502         0.11358
         5670.559       0.1145547
         5675.617        0.115508
         5680.679       0.1164582
         5685.752       0.1173952
         5690.823       0.1183246
         5695.899       0.1193259
         5700.979       0.1204625
         5706.064       0.1213506
          5711.16       0.1222999
         5716.254       0.1232208
         5721.353       0.1240921
         5726.456       0.1249105
         5731.567       0.1257552
         5736.682       0.1265466
         5741.799       0.1273139
          5746.92        0.128042
         5752.053       0.1287602
         5757.183       0.1294605
         5762.318       0.1301835
         5767.458       0.1308105
         5772.602       0.1314079
         5777.757       0.1319638
         5782.911       0.1324939
         5788.068       0.1330269
         5793.237       0.1334937
         5798.401       0.1339065
         5803.577       0.1343367
         5808.753       0.1347393
         5813.937       0.1350885
         5819.126       0.1354335
         5824.316       0.1357027
         5829.511        0.135936
         5834.711        0.136199
         5839.918        0.136467
          5845.13       0.1367044
         5850.344       0.1369393
         5855.562       0.1371225
         5860.792       0.1373466
         5866.016       0.1375783
         5871.251       0.1377405
         5876.488       0.1379384
         5881.732       0.1381619
         5886.982       0.1383855
         5892.232       0.1385638
         5897.491       0.1387347
         5902.749       0.1389491
         5908.017       0.1391055
          5913.29       0.1393452
         5918.563        0.139546
         5923.846       0.1397945
         5929.133        0.140005
         5934.421       0.1402896
         5939.714       0.1405158
         5945.012       0.1407569
         5950.318       0.1410131
         5955.629       0.1412518
         5960.941       0.1415399
         5966.258       0.1418458
         5971.579       0.1421286
         5976.909       0.1423657
         5982.243       0.1426372
         5987.579       0.1429209
         5992.923       0.1431725
         5998.271       0.1433954
         6003.622       0.1435194
         6008.976       0.1435928
         6014.336       0.1436529
         6019.704       0.1437413
         6025.076       0.1438259
          6030.45       0.1438795
         6035.832       0.1439424
         6041.219       0.1439311
         6046.604       0.1439209
         6052.001       0.1439414
         6057.399       0.1438973
         6062.805       0.1438607
         6068.216       0.1438048
         6073.628       0.1437443
         6079.046       0.1436615
         6084.468       0.1435791
         6089.898       0.1435193
         6095.333       0.1433777
          6100.77       0.1432801
         6106.215       0.1431837
         6111.665       0.1430438
         6117.112       0.1429101
         6122.572       0.1427618
         6128.033       0.1425764
         6133.502       0.1423792
         6138.976       0.1421668
         6144.452       0.1419895
         6149.936       0.1418199
         6155.417        0.141669
         6160.911       0.1415351
          6166.41       0.1413982
          6171.91       0.1413214
         6177.418        0.141247
         6182.932       0.1411337
         6188.443       0.1410527
         6193.966       0.1409727
         6199.491       0.1408809
         6205.024       0.1407961
         6210.562        0.140681
         6216.101       0.1406026
         6221.649       0.1405767
         6227.195       0.1405915
         6232.756       0.1405869
         6238.315       0.1405948
         6243.879       0.1406391
         6249.452       0.1407496
         6255.029       0.1408755
         6260.608       0.1410123
         6266.193       0.1411254
         6271.782        0.141265
         6277.379       0.1414519
         6282.982        0.141645
         6288.586       0.1417964
         6294.198       0.1419646
         6299.809        0.142175
         6305.435       0.1423463
         6311.059       0.1425166
         6316.688       0.1428147
         6322.326       0.1430224
         6327.968       0.1432454
         6333.612       0.1434684
         6339.262       0.1437522
         6344.916       0.1439582
         6350.579       0.1441945
         6356.247       0.1443819
         6361.916       0.1445461
         6367.594       0.1448375
         6373.277       0.1450697
         6378.961       0.1453104
         6384.651       0.1455093
         6390.346        0.145701
         6396.049       0.1458293
         6401.757       0.1459177
         6407.467       0.1459484
         6413.183       0.1459378
         6418.906       0.1459452
         6424.631       0.1458911
         6430.365        0.145955
         6436.104       0.1459469
         6441.845       0.1458991
         6447.594       0.1458502
         6453.345       0.1457757
         6459.101       0.1456677
         6464.866       0.1455312
         6470.632       0.1453959
         6476.407       0.1452181
         6482.184       0.1450436
         6487.969       0.1448261
         6493.756       0.1445901
         6499.548       0.1444212
         6505.349       0.1441004
         6511.154       0.1437877
         6516.962       0.1434235
         6522.778       0.1427658
         6528.596       0.1421563
         6534.419       0.1421488
         6540.251       0.1420672
         6546.088       0.1415363
         6551.927       0.1410517
         6557.771       0.1404958
         6563.624       0.1399329
         6569.478       0.1393783
         6575.341       0.1387622
         6581.206       0.1381286
          6587.08       0.1374746
         6592.955       0.1367486
         6598.839       0.1360178
         6604.729       0.1351767
         6610.616       0.1342857
         6616.516       0.1332984
         6622.421       0.1322494
         6628.328        0.131168
         6634.244       0.1300058
         6640.165       0.1287985
         6646.087       0.1274963
         6652.015       0.1260818
         6657.948       0.1245677
         6663.891       0.1228446
         6669.838        0.120997
         6675.787       0.1189409
         6681.745       0.1167976
         6687.701       0.1146295
          6693.67       0.1124622
         6699.644       0.1104114
          6705.62       0.1085326
         6711.604       0.1068423
         6717.594       0.1053495
         6723.586       0.1041458
         6729.583       0.1031834
         6735.585       0.1024465
         6741.597       0.1018242
         6747.613       0.1013172
         6753.632       0.1008483
          6759.66       0.1003399
         6765.692      0.09993432
         6771.723       0.0997346
         6777.767      0.09984863
         6783.813       0.1003672
         6789.867       0.1014457
         6795.927        0.103035
         6801.988       0.1052417
         6808.055       0.1080115
         6814.127       0.1112395
         6820.209       0.1146995
         6826.296       0.1184054
         6832.385       0.1217948
         6838.482       0.1243055
         6844.586       0.1254169
         6850.687       0.1245783
         6856.801       0.1212047
         6862.917       0.1151979
         6869.042       0.1067566
         6875.173      0.09621865
         6881.305      0.08457693
         6887.446      0.07246976
         6893.586      0.06080511
         6899.738       0.0502364
         6905.896      0.04090722
         6912.056      0.03303207
         6918.225      0.02674208
         6924.399      0.02155387
         6930.572      0.01744215
         6936.757      0.01420672
         6942.944       0.0116402
         6949.141     0.009585099
         6955.343     0.007935106
         6961.546     0.006600187
          6967.76     0.005508265
         6973.971     0.004632082
         6980.195     0.004156207
         6986.424     0.003824717
         6992.656     0.003494393
         6998.897     0.003141926
         7005.143     0.002688166
         7011.392     0.002301179
         7017.645       0.0019739
         7023.904     0.001693358
         7030.173     0.001455242
         7036.448     0.001252114
         7042.724     0.001080113
         7049.009     9.339885E-4
         7055.292     8.221790E-4
         7061.589     7.167895E-4
         7067.892     6.274888E-4
         7074.196     5.543128E-4
          7080.51     4.927019E-4
         7086.829     4.406921E-4
          7093.15     3.956699E-4
         7099.477     3.560380E-4
         7105.809     3.215070E-4
         7112.151     2.898654E-4
         7118.498     2.613982E-4
         7124.848     2.353207E-4
         7131.207     2.113944E-4
         7137.571     1.900216E-4
         7143.933     1.711962E-4
         7150.309     1.535286E-4
         7156.687     1.378484E-4
         7163.074     1.236896E-4
         7169.467     1.109497E-4
         7175.862     9.962216E-5
         7182.262     9.018670E-5
         7188.668     8.185175E-5
         7195.084     7.483861E-5
         7201.506     6.866045E-5
         7207.929     6.352137E-5
         7214.362     5.874188E-5
         7220.801     5.456329E-5
         7227.237     5.064233E-5
         7233.688     4.712561E-5
         7240.144     4.376152E-5
         7246.601     4.049700E-5
         7253.069     3.751411E-5
         7259.538     3.489260E-5
         7266.017     3.242165E-5
         7272.498     3.011041E-5
         7278.989     2.773471E-5
         7285.481     2.576662E-5
         7291.979     2.384791E-5
         7298.487     2.205636E-5
         7305.001     2.044529E-5
         7311.517     1.908899E-5
         7318.038     1.771173E-5
         7324.569     1.650707E-5
         7331.103     1.542634E-5
         7337.646     1.441145E-5
          7344.19     1.342734E-5
         7350.745     1.259161E-5
         7357.301     1.196418E-5
         7363.867     1.135472E-5
         7370.436     1.071953E-5
         7377.014     1.026394E-5
         7383.593     9.810095E-6
         7390.183     9.333342E-6
         7396.775     8.855323E-6
         7403.372     8.444342E-6
         7409.979     8.162905E-6
         7416.589     7.624614E-6
         7423.208     7.321979E-6
         7429.829     6.986597E-6
          7436.46     6.524734E-6
         7443.097     6.156268E-6
         7449.736     5.778033E-6
         7456.381     5.460362E-6
         7463.036     5.121465E-6
         7469.692     4.813542E-6
         7476.359     4.535734E-6
         7483.027     4.346461E-6
         7489.702     4.091877E-6
         7496.386     3.942086E-6
         7503.077     3.972631E-6
         7509.769     3.826822E-6
         7516.471     3.667227E-6
         7523.175     3.487402E-6
          7529.89     3.523033E-6
         7536.606     3.370532E-6
         7543.328     3.129482E-6
         7550.061     3.151712E-6
         7556.794     2.976199E-6
         7563.539     2.953199E-6
          7570.29     2.771513E-6
         7577.042     2.644259E-6
           7583.8     2.526355E-6
         7590.568     2.428965E-6
         7597.339     2.247430E-6
         7604.119     2.105117E-6
         7610.906     2.063817E-6
         7617.694     1.978452E-6
         7624.489     2.011748E-6
          7631.29     1.993970E-6
           7638.1     1.829378E-6
         7644.917     1.876721E-6
         7651.736     1.791990E-6
         7658.565     1.813503E-6
         7665.396     1.693286E-6
         7672.233     1.700584E-6
         7679.081     1.724207E-6
          7685.93     1.568241E-6
          7692.79     1.562163E-6
         7699.655     1.477533E-6
         7706.523     1.446716E-6
         7713.401     1.515987E-6
         7720.276     1.542957E-6
         7727.167     1.437768E-6
         7734.063     1.493474E-6
         7740.961     1.415979E-6
          7747.87     1.367665E-6
         7754.785     1.452585E-6
         7761.697     1.353303E-6
         7768.625     1.348364E-6
         7775.554     1.237262E-6
         7782.494     1.250379E-6
         7789.439     1.264225E-6
         7796.387     1.267826E-6
         7803.345     1.147071E-6
         7810.301     1.050230E-6
         7817.271     1.108436E-6
         7824.249     9.545710E-7
         7831.227     1.113981E-6
         7838.216     1.173895E-6
         7845.212     1.020667E-6
         7852.209     1.190696E-6
         7859.213     1.082192E-6
         7866.223     1.030038E-6
         7873.244     1.088316E-6
         7880.271     1.115358E-6
         7887.299     1.102614E-6
         7894.338     1.023426E-6
         7901.375     1.034767E-6
         7908.427     1.072653E-6
         7915.485     9.857414E-7
         7922.545     9.513467E-7
         7929.616     8.496536E-7
         7936.693     8.658304E-7
         7943.772     8.286793E-7
         7950.858     6.742696E-7
          7957.95     7.177229E-7
         7965.052     6.168952E-7
         7972.161     7.201084E-7
         7979.271     6.016295E-7
         7986.393     8.530459E-7
         7993.521     9.359525E-7
         8000.646     3.567320E-8
         8007.786     3.305064E-8
         8014.929     2.482884E-8
         8022.082     2.996540E-8
         8029.242     2.889918E-8
         8036.403     2.883338E-8
         8043.576     4.441194E-7
         8050.746     1.343896E-7
         8057.931     8.367417E-8
         8065.123     2.030483E-7
         8072.316     1.628117E-7
         8079.521     4.603978E-8
         8086.731     2.371734E-8
          8093.94     2.357903E-8
         8101.164     8.187563E-7
         8108.389     2.875690E-8
         8115.626     6.986308E-8
         8122.869     1.503525E-7
         8130.114     6.129294E-8
          8137.37     5.094293E-8
         8144.628     4.890262E-8
         8151.893     2.489383E-8
         8159.168     1.142198E-7
         8166.446     2.466921E-8
         8173.734     1.716855E-7
         8181.029     6.768610E-8
         8188.326     1.130318E-7
          8195.63     3.580634E-8
         8202.939     1.966413E-7
         8210.261     2.910483E-7
         8217.588     4.538609E-8
         8224.918     1.116278E-7
         8232.259     4.166660E-8
         8239.602     3.473728E-7
          8246.95     7.666354E-8
         8254.311     1.526605E-7
         8261.673     2.867518E-7
         8269.047     3.338191E-8
         8276.427     9.674097E-8
         8283.809     6.486918E-7
         8291.197     1.942039E-7
         8298.597     5.559926E-8
         8305.999     1.920335E-7
         8313.412     7.693522E-8
         8320.827     7.421107E-8
         8328.253     5.989633E-7
         8335.687     2.237175E-7
         8343.121     1.747595E-7
         8350.563     3.946530E-7
         8358.011     3.007627E-8
         8365.471     3.471098E-7
         8372.937     7.638722E-8
         8380.409     7.887794E-7
         8387.879     3.332575E-8
         8395.365     5.098372E-7
         8402.854     1.611546E-7
         8410.353     1.680089E-7
         8417.859     2.368656E-8
         8425.367     3.830567E-7
         8432.887     2.830039E-7
         8440.408     1.972469E-7
         8447.937     5.840189E-7
         8455.477     5.790931E-7
         8463.019     9.529538E-7
         8470.571     7.141331E-7
         8478.127     5.068960E-7
         8485.693     1.196966E-6
         8493.262     1.076062E-6
         8500.842     9.001894E-7
         8508.425     8.572610E-7
         8516.019     7.310425E-7
         8523.614     1.004281E-6
         8531.221     3.805640E-7
          8538.83     1.527493E-6
         8546.446     8.954739E-7
         8554.074     1.131559E-6
         8561.704     1.146345E-6
         8569.345     1.349497E-6
         8576.993     1.848359E-6
         8584.644     1.887488E-6
         8592.301     1.471781E-6
         8599.969     2.456177E-6
          8607.64     2.517198E-6
         8615.321     1.729502E-6
         8623.006     2.599327E-6
         8630.702     2.021588E-6
         8638.405     3.051595E-6
         8646.105     1.727664E-6
         8653.821     3.566863E-6
          8661.54     2.321840E-6
         8669.271     2.634421E-6
         8677.008     2.859807E-6
         8684.747     2.971363E-6
         8692.493     3.200575E-6
         8700.251     3.099063E-6
         8708.012     3.884723E-6
         8715.783     3.979760E-6
         8723.563     3.095317E-6
         8731.343     3.994775E-6
         8739.136     4.365793E-6
         8746.926     3.603953E-6
         8754.732     3.899082E-6
         8762.546     3.613230E-6
         8770.361     4.315191E-6
         8778.188     4.482122E-6
         8786.019     4.103286E-6
         8793.859     4.734356E-6
         8801.703     4.676525E-6
         8809.554     4.730632E-6
         8817.416     4.289773E-6
         8825.286     4.495926E-6
         8833.157     4.262167E-6
         8841.041     3.858475E-6
         8848.922     3.829045E-6
         8856.819     4.828956E-6
         8864.724     4.605437E-6
         8872.631     4.463505E-6
          8880.55     4.044771E-6
         8888.476     4.184662E-6
         8896.403     4.168327E-6
         8904.338     4.453615E-6
          8912.28     4.652691E-6
         8920.234     4.798134E-6
         8928.195     4.716977E-6
         8936.159     5.265134E-6
         8944.135     5.084265E-6
         8952.117     4.960398E-6
         8960.097     5.345084E-6
         8968.094     5.497537E-6
         8976.093     5.418289E-6
         8984.104     5.490887E-6
         8992.122     5.540972E-6
         9000.143     6.120156E-6
         9008.175     5.519802E-6
         9016.205     5.633417E-6
         9024.252     5.352715E-6
         9032.306     5.480335E-6
         9040.362     5.512914E-6
         9048.431     5.140203E-6
         9056.506     5.736969E-6
         9064.579     5.626602E-6
         9072.669     5.663932E-6
         9080.761     5.171359E-6
         9088.865     5.668128E-6
         9096.978     6.095830E-6
         9105.092     5.853822E-6
         9113.218     5.847618E-6
         9121.341     6.324993E-6
         9129.481     6.437768E-6
          9137.63     6.525310E-6
          9145.78     6.403514E-6
         9153.942     7.130456E-6
         9162.112     6.511301E-6
         9170.284     6.415811E-6
         9178.464     6.422389E-6
         9186.655     6.199062E-6
         9194.849     6.935062E-6
         9203.056     6.880200E-6
         9211.264     5.970455E-6
         9219.485     6.320574E-6
         9227.708     5.834109E-6
         9235.938     5.283860E-6
         9244.182     5.186293E-6
         9252.427     4.908833E-6
         9260.685     4.312593E-6
         9268.949     4.579114E-6
         9277.217     4.181740E-6
         9285.492     3.960014E-6
         9293.779     3.328619E-6
         9302.068     3.795822E-6
          9310.37     3.214735E-6
         9318.675     3.083873E-6
         9326.991     2.978457E-6
         9335.315     3.105751E-6
         9343.637     2.684711E-6
         9351.977     2.284205E-6
         9360.317     2.313387E-6
         9368.672     2.401383E-6
         9377.033     2.162539E-6
         9385.396     1.990139E-6
         9393.768     2.034742E-6
         9402.152     1.987773E-6
         9410.538     1.869414E-6
         9418.937     1.643420E-6
         9427.338     1.667221E-6
         9435.752     1.626527E-6
         9444.173     1.371567E-6
         9452.592     1.449106E-6
         9461.028     1.463609E-6
         9469.472     1.209463E-6
         9477.918     1.279523E-6
         9486.377     1.005423E-6
         9494.838     7.971323E-7
         9503.313     8.638959E-7
         9511.788     8.956335E-7
         9520.272     1.154386E-6
          9528.77     7.252068E-7
         9537.269     7.869772E-7
          9545.78     4.600205E-7
           9554.3     5.046945E-7
         9562.821     6.799695E-7
         9571.351     5.734499E-7
         9579.894     3.428397E-7
         9588.438     4.965719E-7
         9596.995     6.383315E-7
         9605.561     3.396245E-7
         9614.128     3.151953E-7
         9622.704     2.142153E-7
         9631.286     4.596004E-7
         9639.882     2.543954E-7
         9648.485     4.453771E-7
         9657.092     4.416259E-7
         9665.711     4.884041E-7
         9674.332     4.553314E-7
         9682.961     7.594486E-8
         9691.603     2.707940E-7
         9700.252     3.992368E-7
         9708.904     1.625542E-7
         9717.569     2.127604E-7
         9726.237     1.985195E-7
         9734.912     1.711228E-7
         9743.601     1.571093E-7
         9752.291     1.708903E-7
         9760.995     2.528166E-7
         9769.701     1.843973E-7
         9778.421     1.589514E-7
         9787.147     7.470288E-8
         9795.872     3.046488E-7
         9804.614     2.762618E-8
         9813.359     1.583182E-7
         9822.118     6.773583E-8
         9830.884     6.022842E-8
         9839.652     4.182870E-8
         9848.435     7.340274E-9
         9857.219     4.649377E-8
         9866.011     2.045968E-8
         9874.816     1.267521E-7
         9883.624     3.567857E-8
         9892.444     4.214658E-9
         9901.273     4.805820E-8
         9910.104     2.210738E-7
         9918.944     4.679774E-8
         9927.791     7.623093E-8
         9936.651     8.663496E-8
         9945.521     5.079424E-8
         9954.391     1.962164E-8
         9963.275     9.888620E-9
         9972.162     1.140500E-7
         9981.057     1.972479E-7
         9989.964     1.141455E-7
          9998.88     1.111845E-7
          10007.8     3.906380E-8
         10016.72     2.998825E-8
         10025.67     3.505825E-8
          10034.6     4.240070E-9
         10043.56     3.056229E-8
         10052.52     3.850025E-8
         10061.49     1.296081E-8
         10070.47     7.810625E-8
         10079.46     1.994951E-8
         10088.45     3.156469E-8
         10097.44     1.380677E-8
         10106.46     3.531599E-8
         10115.48     1.957689E-8
          10124.5     2.126506E-8
         10133.53     4.363455E-8
         10142.58     5.475878E-8
         10151.62     1.555439E-9
         10160.68     3.112947E-8
         10169.74     1.139612E-8
         10178.81     1.526339E-8
          10187.9     2.970995E-8
         10196.99     5.394556E-9
         10206.08     2.966970E-8
         10215.19     5.913962E-8
         10224.31     1.755073E-8
         10233.43     4.480463E-8
         10242.56     1.173897E-8
         10251.69     6.839023E-8
         10260.85     5.853105E-8
           10270.     3.680547E-9
         10279.16     2.171303E-8
         10288.33     5.333330E-9
         10297.51     1.204480E-8
          10306.7     5.185431E-8
         10315.89     1.037180E-8
          10325.1     1.616808E-9
          10334.3     2.198450E-8
         10343.53     1.147158E-8
         10352.76     2.123302E-8
         10361.99     3.270132E-9
         10371.25     1.902643E-8
          10380.5    6.581150E-10
         10389.76     7.065375E-9
         10399.02     1.542765E-8
          10408.3     4.571506E-9
         10417.59     3.640252E-9
         10426.89     1.987253E-8
         10436.19     1.419414E-8
         10445.49     1.031844E-8
         10454.82     1.510637E-8
         10464.15     1.194470E-8
         10473.48     5.207376E-9
         10482.82    6.890142E-10
         10492.17     1.365410E-8
         10501.54     1.532159E-9
         10510.91    4.763300E-10
         10520.29     6.505322E-9
         10529.67     2.533784E-9
         10539.07     1.012923E-8
         10548.47     8.652037E-9
         10557.88     5.812115E-9
         10567.31     1.156463E-8
         10576.73     1.382807E-8
         10586.17     1.244868E-9
         10595.61     1.249143E-8
         10605.06     7.080837E-9
         10614.53     5.868211E-9
           10624.     1.058227E-8
         10633.48     9.031144E-9
         10642.96     6.163762E-9
         10652.45     4.616413E-9
         10661.97     3.279734E-9
         10671.48     8.441074E-9
         10680.99     8.292807E-9
         10690.53     6.377060E-9
         10700.07     4.451537E-9
         10709.61     2.254345E-9
         10719.16     9.563237E-9
         10728.72     6.846450E-9
         10738.31     4.988771E-9
         10747.88     5.646808E-9
         10757.47     8.402165E-9
         10767.08     6.995041E-9
         10776.67     5.174721E-9
         10786.29     4.111107E-9
         10795.91     2.017912E-9
         10805.54     7.649422E-9
         10815.18     6.117889E-9
         10824.83     5.861150E-9
         10834.49     5.643072E-9
         10844.17     5.829892E-9
         10853.84     5.344285E-9
         10863.52     8.995591E-9
         10873.21     1.013892E-8
         10882.91     6.611014E-9
         10892.63     7.526713E-9
         10902.35     7.887648E-9
         10912.07     7.992210E-9
         10921.81     8.256205E-9
         10931.54     7.458651E-9
         10941.31     7.109178E-9
         10951.07     6.549594E-9
         10960.83     6.606854E-9
         10970.62     5.338392E-9
         10980.39     5.456870E-9
          10990.2     6.084667E-9
           11000.     5.211978E-9
