#  Table wf2f185wsys.tab  Mon 12:21:38 02-Jun-97

#      WAVELENGTH      THROUGHPUT
#       angstroms                

            1640.              0.
         1641.562     6.614078E-6
         1643.125     1.322515E-5
         1644.691     1.983575E-5
         1646.258     2.644222E-5
         1647.825     3.303577E-5
         1649.395     3.965810E-5
         1650.966     4.631141E-5
         1652.538     5.299780E-5
         1654.113     5.970554E-5
         1655.689     6.642788E-5
         1657.265     7.316739E-5
         1658.844     7.992519E-5
         1660.425     8.672577E-5
         1662.006     9.360463E-5
         1663.589     1.005142E-4
         1665.173     1.074540E-4
         1666.759     1.144247E-4
         1668.347     1.214296E-4
         1669.936     1.284613E-4
         1671.527     1.356273E-4
          1673.12     1.428438E-4
         1674.712     1.500943E-4
         1676.308     1.573956E-4
         1677.905     1.647401E-4
         1679.502     1.721195E-4
         1681.103     1.796352E-4
         1682.704     1.872379E-4
         1684.307     1.948949E-4
         1685.911     2.026100E-4
         1687.517     2.103754E-4
         1689.124     2.181959E-4
         1690.733     2.261323E-4
         1692.344     2.342069E-4
         1693.956     2.423425E-4
          1695.57     2.505482E-4
         1697.185     2.588144E-4
           1698.8     2.671426E-4
         1700.419     2.778395E-4
          1702.04     2.952283E-4
         1703.661     3.127654E-4
         1705.283     3.304636E-4
         1706.908     3.483334E-4
         1708.533     3.663447E-4
         1710.161     3.845581E-4
          1711.79     4.030789E-4
          1713.42     4.217825E-4
         1715.053     4.406775E-4
         1716.685     4.597351E-4
         1718.321     4.789993E-4
         1719.958     4.984500E-4
         1721.596     5.182322E-4
         1723.236     5.382405E-4
         1724.877     5.584414E-4
          1726.52     5.788449E-4
         1728.165     5.994663E-4
         1729.811     6.202825E-4
         1731.459     6.432894E-4
         1733.108     6.667955E-4
         1734.759     6.905600E-4
         1736.411     7.145585E-4
         1738.065     7.388082E-4
         1739.721     7.633223E-4
         1741.377     7.881903E-4
         1743.037     8.133775E-4
         1744.698     8.388314E-4
         1746.358     8.645232E-4
         1748.023     8.905153E-4
         1749.687     9.167643E-4
         1751.354     9.422539E-4
         1753.023     9.677314E-4
         1754.691     9.933850E-4
         1756.363     0.001019274
         1758.036     0.001045358
          1759.71     0.001071652
         1761.387     0.001094924
         1763.066     0.001117701
         1764.744     0.001140631
         1766.425     0.001163755
         1768.108     0.001187075
         1769.792     0.001210565
         1771.478     0.001234366
         1773.165     0.001258361
         1774.854     0.001282545
         1776.545     0.001306921
         1778.237     0.001331501
         1779.931      0.00135626
         1781.626     0.001381343
         1783.324     0.001406644
         1785.021     0.001432116
         1786.722     0.001457818
         1788.425     0.001483722
         1790.127     0.001508976
         1791.833     0.001524208
          1793.54     0.001539533
         1795.248      0.00155496
         1796.958     0.001570498
          1798.67      0.00158613
         1800.383     0.001601896
         1802.098     0.001617874
         1803.814     0.001633958
         1805.533     0.001650157
         1807.252     0.001666454
         1808.975     0.001682869
         1810.696     0.001699438
         1812.423     0.001716241
         1814.148     0.001733127
         1815.876     0.001750136
         1817.606     0.001767267
         1819.336      0.00178449
         1821.071     0.001798047
         1822.805     0.001809291
         1824.541      0.00182059
         1826.279     0.001831942
         1828.018      0.00184335
          1829.76     0.001854818
         1831.503     0.001866476
         1833.248      0.00187822
         1834.993     0.001890006
         1836.742     0.001901863
         1838.492     0.001913777
         1840.242     0.001925756
         1841.996     0.001937943
          1843.75     0.001950181
         1845.506      0.00196248
         1847.265     0.001974844
         1849.024      0.00198726
         1850.785     0.001996933
         1852.547     0.002003131
         1854.312     0.002009325
         1856.078     0.002015514
         1857.847     0.002021702
         1859.616     0.002027882
         1861.387      0.00203419
         1863.161     0.002040535
         1864.934     0.002046866
         1866.711       0.0020532
          1868.49     0.002059529
         1870.269      0.00206587
         1872.051     0.002072348
         1873.834     0.002078817
         1875.619     0.002085284
         1877.406     0.002091743
         1879.194     0.002098032
         1880.983     0.002103059
         1882.775     0.002108146
         1884.569     0.002113216
         1886.364     0.002118267
         1888.161     0.002123303
          1889.96     0.002128319
         1891.759     0.002133462
         1893.561     0.002138596
         1895.365     0.002143709
         1897.171     0.002148806
         1898.978     0.002153882
         1900.785     0.002159011
         1902.597     0.002164223
          1904.41     0.002169417
         1906.223     0.002174588
         1908.039      0.00217974
         1909.857     0.002184875
         1911.675      0.00218629
         1913.497     0.002187334
          1915.32     0.002188321
         1917.143     0.002189248
          1918.97     0.002190118
         1920.798     0.002190986
         1922.627     0.002191868
         1924.459     0.002192691
         1926.292     0.002193454
         1928.126     0.002194157
         1929.963     0.002194799
         1931.802     0.002195519
         1933.642     0.002196181
         1935.483      0.00219678
         1937.328     0.002197318
         1939.172     0.002197792
         1941.021     0.002197576
         1942.869     0.002196779
         1944.719     0.002195906
         1946.572     0.002194958
         1948.426     0.002193934
         1950.282     0.002192853
          1952.14     0.002191807
         1953.998     0.002190685
          1955.86     0.002189483
         1957.723     0.002188202
         1959.588     0.002186844
         1961.454     0.002185465
         1963.324     0.002184023
         1965.192     0.002182502
         1967.064       0.0021809
         1968.939     0.002179215
         1970.814     0.002176893
         1972.692     0.002173747
          1974.57     0.002170508
         1976.451     0.002167173
         1978.334     0.002163741
         1980.219     0.002160221
         1982.104     0.002156663
         1983.992     0.002153006
         1985.883      0.00214925
         1987.774     0.002145398
         1989.667     0.002141447
         1991.563     0.002137442
         1993.459     0.002133352
         1995.359     0.002129157
          1997.26     0.002124861
         1999.161      0.00212047
         2001.066     0.002114406
         2002.972     0.002106974
         2004.879     0.002099391
          2006.79      0.00209165
           2008.7     0.002083765
         2010.614      0.00207573
         2012.529     0.002067571
         2014.447     0.002059249
         2016.365     0.002050776
         2018.287      0.00204214
         2020.208     0.002033351
         2022.132      0.00202438
         2024.059     0.002015242
         2025.985     0.002005953
         2027.917     0.001996485
         2029.849     0.001986865
         2031.782     0.001973224
         2033.717     0.001959049
         2035.654     0.001944667
         2037.594     0.001930068
         2039.534     0.001915267
         2041.478     0.001900211
         2043.421     0.001884951
         2045.368     0.001869461
         2047.316     0.001853766
         2049.266     0.001837857
         2051.219      0.00182168
         2053.172     0.001805273
         2055.128     0.001788647
         2057.085     0.001771805
         2059.045     0.001754735
         2061.006     0.001736082
         2062.969     0.001715887
         2064.934     0.001695447
           2066.9     0.001674764
          2068.87     0.001653822
         2070.842     0.001632588
         2072.813     0.001611081
         2074.788     0.001589298
         2076.764     0.001567279
         2078.742     0.001545012
         2080.721     0.001522449
         2082.703     0.001499559
         2084.688     0.001476407
         2086.673     0.001453018
         2088.662     0.001429361
         2090.651     0.001406059
         2092.642      0.00138374
         2094.635     0.001361186
          2096.63     0.001338398
         2098.629     0.001315348
         2100.626     0.001292061
         2102.628     0.001268423
         2104.631     0.001244565
         2106.634     0.001220483
         2108.643     0.001196127
          2110.65     0.001171529
         2112.661     0.001146577
         2114.673     0.001121403
         2116.686     0.001096013
         2118.704     0.001070342
         2120.722     0.001046553
         2122.742     0.001026315
         2124.763     0.001005894
         2126.788     9.852807E-4
         2128.815     9.644831E-4
         2130.841     9.434644E-4
         2132.872     9.221594E-4
         2134.902     9.007007E-4
         2136.936     8.790359E-4
         2138.972     8.573251E-4
         2141.009     8.355177E-4
         2143.049     8.134217E-4
         2145.089     7.911576E-4
         2147.134     7.686686E-4
         2149.179     7.460129E-4
         2151.226     7.293427E-4
         2153.274     7.166914E-4
         2155.325     7.039342E-4
         2157.379     6.910643E-4
         2159.434     6.780938E-4
         2161.491     6.649080E-4
          2163.55     6.515891E-4
         2165.609     6.381757E-4
         2167.673     6.246432E-4
         2169.738     6.110152E-4
         2171.805     5.971497E-4
         2173.874     5.831760E-4
         2175.943     5.691128E-4
         2178.016     5.549347E-4
         2180.092     5.406520E-4
         2182.168     5.261534E-4
         2184.246     5.115645E-4
         2186.328     4.968726E-4
         2188.409     4.821051E-4
         2190.494     4.683630E-4
         2192.582     4.582094E-4
          2194.67     4.480029E-4
          2196.76     4.377374E-4
         2198.852     4.274115E-4
         2200.946     4.180976E-4
         2203.043     4.099240E-4
         2205.142     4.015650E-4
         2207.242     3.930146E-4
         2209.344     3.842720E-4
         2211.449     3.773741E-4
         2213.555     3.712564E-4
         2215.664     3.649968E-4
         2217.774     3.585945E-4
         2219.886     3.520487E-4
         2222.001     3.453049E-4
         2224.117     3.384196E-4
         2226.236     3.313911E-4
         2228.357     3.242138E-4
         2230.479     3.174290E-4
         2232.604     3.123487E-4
          2234.73     3.071611E-4
         2236.858     3.018671E-4
          2238.99     2.964619E-4
         2241.122     2.909288E-4
         2243.258     2.852642E-4
         2245.393     2.794988E-4
         2247.534     2.736158E-4
         2249.673     2.676339E-4
         2251.816     2.631135E-4
         2253.962     2.587913E-4
         2256.107     2.543932E-4
         2258.258     2.499055E-4
         2260.409     2.453526E-4
         2262.562     2.407655E-4
         2264.717     2.360988E-4
         2266.873     2.313522E-4
         2269.034     2.265216E-4
         2271.195     2.223787E-4
         2273.359     2.187872E-4
         2275.523     2.151384E-4
         2277.691     2.114234E-4
          2279.86     2.076487E-4
         2282.032     2.037930E-4
         2284.206     1.998722E-4
          2286.38     1.958940E-4
         2288.559     1.918484E-4
          2290.74     1.881434E-4
         2292.922     1.851716E-4
         2295.105     1.821522E-4
         2297.291     1.791247E-4
         2299.479     1.760746E-4
          2301.67     1.729248E-4
         2303.863     1.697109E-4
         2306.058     1.664444E-4
         2308.253     1.631301E-4
         2310.453     1.599663E-4
         2312.653     1.575548E-4
         2314.855     1.551046E-4
         2317.062     1.526136E-4
         2319.267     1.500865E-4
         2321.477     1.475096E-4
         2323.689     1.448899E-4
         2325.902     1.422321E-4
         2328.117     1.395349E-4
         2330.335     1.369072E-4
         2332.554     1.348598E-4
         2334.777     1.327799E-4
         2337.002     1.306690E-4
         2339.226     1.285294E-4
         2341.455     1.263495E-4
         2343.685     1.241367E-4
         2345.917     1.218923E-4
         2348.153     1.196151E-4
         2350.388     1.174111E-4
         2352.628     1.156627E-4
         2354.868     1.138907E-4
         2357.112     1.120927E-4
         2359.357     1.102708E-4
         2361.604     1.084171E-4
         2363.853     1.065355E-4
         2366.104     1.046291E-4
         2368.359     1.026964E-4
         2370.615     1.008748E-4
         2372.873     9.939144E-5
         2375.134     9.788763E-5
         2377.396     9.636504E-5
          2379.66     9.482262E-5
         2381.926     9.325328E-5
         2384.195     9.166297E-5
         2386.467     9.005207E-5
          2388.74     8.842221E-5
         2391.016     8.697499E-5
         2393.293     8.576417E-5
         2395.573     8.453844E-5
         2397.854     8.329757E-5
         2400.138     8.203284E-5
         2402.426     8.061563E-5
         2404.713     7.918439E-5
         2407.003     7.773616E-5
         2409.297     7.627041E-5
          2411.59     7.507457E-5
         2413.889     7.398971E-5
         2416.187     7.289427E-5
          2418.49     7.178507E-5
         2420.793     7.066199E-5
         2423.097     6.952316E-5
         2425.407     6.836987E-5
         2427.716     6.720620E-5
          2430.03     6.603233E-5
         2432.344     6.512910E-5
         2434.662     6.421547E-5
         2436.979     6.329306E-5
           2439.3     6.236017E-5
         2441.626     6.136204E-5
          2443.95     6.033183E-5
         2446.279     5.928980E-5
         2448.608     5.823798E-5
          2450.94     5.729616E-5
         2453.276     5.652378E-5
         2455.611     5.574432E-5
         2457.951     5.495604E-5
         2460.292     5.415977E-5
         2462.637     5.335307E-5
         2464.982     5.253887E-5
          2467.33     5.171652E-5
         2469.681     5.088561E-5
         2472.031     5.018246E-5
         2474.387     4.949278E-5
         2476.745     4.879630E-5
         2479.103     4.809377E-5
         2481.465     4.743278E-5
         2483.828     4.679603E-5
         2486.194     4.615306E-5
         2488.563     4.550345E-5
         2490.932     4.488046E-5
         2493.305     4.430053E-5
          2495.68     4.371531E-5
         2498.058     4.312399E-5
         2500.437     4.252739E-5
          2502.82     4.192463E-5
         2505.202     4.131682E-5
         2507.588     4.070288E-5
         2509.978     4.008284E-5
         2512.368     3.954231E-5
         2514.762     3.899712E-5
         2517.157     3.844703E-5
         2519.555     3.789174E-5
         2521.954     3.740198E-5
         2524.358     3.692345E-5
         2526.762     3.644063E-5
         2529.168     3.595315E-5
         2531.578     3.551923E-5
         2533.988     3.511251E-5
         2536.403     3.470136E-5
         2538.818     3.423659E-5
         2541.236     3.370754E-5
         2543.658     3.313202E-5
          2546.08     3.255401E-5
         2548.505     3.197324E-5
         2550.934     3.149400E-5
         2553.363     3.118056E-5
         2555.795     3.086544E-5
         2558.229     3.054860E-5
         2560.666     3.018047E-5
         2563.106     2.967793E-5
         2565.547     2.917327E-5
          2567.99     2.866615E-5
         2570.436     2.818966E-5
         2572.887     2.786339E-5
         2575.336     2.753599E-5
         2577.788     2.720670E-5
         2580.245     2.687563E-5
         2582.701     2.654456E-5
         2585.163     2.621114E-5
         2587.625     2.587639E-5
          2590.09     2.553999E-5
         2592.557     2.520312E-5
         2595.026     2.486453E-5
         2597.499     2.452398E-5
         2599.972     2.418190E-5
          2602.45     2.383925E-5
         2604.927     2.349524E-5
         2607.409     2.314906E-5
         2609.893     2.280135E-5
         2612.378     2.263724E-5
         2614.868     2.248039E-5
         2617.357     2.232274E-5
         2619.851     2.216392E-5
         2622.347     2.182251E-5
         2624.843     2.146815E-5
         2627.345     2.111156E-5
         2629.847     2.075341E-5
         2632.352     2.057884E-5
          2634.86     2.041522E-5
         2637.369     2.025067E-5
         2639.881     2.008514E-5
         2642.395     1.982493E-5
         2644.913     1.955850E-5
         2647.432     1.929080E-5
         2649.954     1.902171E-5
         2652.478     1.885047E-5
         2655.004     1.868008E-5
         2657.534     1.850858E-5
         2660.066     1.833609E-5
         2662.599     1.816347E-5
         2665.135     1.798981E-5
         2667.674     1.781514E-5
         2670.214     1.763952E-5
         2672.759     1.746327E-5
         2675.303     1.728622E-5
         2677.854     1.710786E-5
         2680.402     1.692891E-5
         2682.957     1.674935E-5
         2685.512     1.656889E-5
          2688.07     1.638742E-5
          2690.63     1.620504E-5
         2693.194     1.602185E-5
         2695.759     1.583775E-5
         2698.327     1.565255E-5
         2700.896     1.551240E-5
         2703.469     1.545700E-5
         2706.044     1.540090E-5
         2708.622     1.534406E-5
         2711.201     1.523681E-5
         2713.783     1.507122E-5
         2716.369     1.490397E-5
         2718.958     1.473520E-5
         2721.547     1.463012E-5
         2724.139     1.456803E-5
         2726.734     1.450518E-5
         2729.331     1.444157E-5
         2731.931     1.437725E-5
         2734.532     1.431227E-5
         2737.139     1.424640E-5
         2739.744     1.417988E-5
         2742.355     1.401124E-5
         2744.967     1.383015E-5
         2747.581     1.364745E-5
         2750.199     1.346917E-5
         2752.817     1.336447E-5
          2755.44     1.325938E-5
         2758.066     1.315405E-5
         2760.691     1.304854E-5
         2763.322     1.294252E-5
         2765.954     1.283631E-5
          2768.59     1.272978E-5
         2771.225     1.262308E-5
         2773.864     1.251601E-5
         2776.509     1.240857E-5
          2779.15     1.230112E-5
           2781.8     1.219299E-5
         2784.449     1.208466E-5
         2787.101     1.197607E-5
         2789.756     1.186723E-5
         2792.413     1.175788E-5
         2795.075     1.164813E-5
         2797.734     1.153838E-5
         2800.402     1.142810E-5
         2803.069     1.131752E-5
         2805.738     1.120668E-5
         2808.412     1.109554E-5
         2811.085     1.103204E-5
         2813.764     1.103843E-5
         2816.444     1.104482E-5
         2819.127     1.105122E-5
         2821.813     1.097726E-5
           2824.5     1.086441E-5
          2827.19     1.075133E-5
         2829.883     1.063800E-5
         2832.578     1.052429E-5
         2835.278     1.041021E-5
         2837.979     1.029600E-5
         2840.682     1.018148E-5
         2843.387     1.006651E-5
         2846.095     9.951294E-6
         2848.805     9.835853E-6
         2851.519     9.787668E-6
         2854.236     9.792556E-6
         2856.954     9.797447E-6
         2859.677     9.802345E-6
           2862.4     9.700077E-6
         2865.126     9.583164E-6
         2867.855     9.466028E-6
         2870.586     9.348595E-6
         2873.322     9.230692E-6
         2876.058     9.112625E-6
         2878.797     8.994339E-6
         2881.541     8.944619E-6
         2884.285     8.948633E-6
         2887.032     8.952650E-6
         2889.781     8.956672E-6
         2892.534     8.846987E-6
         2895.289     8.727278E-6
         2898.049     8.607219E-6
         2900.809     8.518638E-6
         2903.572     8.506107E-6
         2906.337     8.493547E-6
         2909.105     8.480955E-6
         2911.877     8.384531E-6
         2914.649     8.248504E-6
         2917.427     8.112534E-6
         2920.205     7.985971E-6
         2922.988     7.973638E-6
         2925.771     7.961286E-6
         2928.558     7.948906E-6
         2931.347     7.877027E-6
         2934.139     7.741640E-6
         2936.935     7.606428E-6
         2939.734     7.471451E-6
         2942.532     7.447813E-6
         2945.336     7.435826E-6
         2948.141     7.423818E-6
         2950.948     7.370370E-6
         2953.759     7.235858E-6
         2956.572     7.101620E-6
         2959.391     6.967487E-6
         2962.206     6.929503E-6
         2965.031     6.917886E-6
         2967.855     6.906257E-6
         2970.681     6.865230E-6
          2973.51     6.731803E-6
         2976.342     6.598666E-6
          2979.18     6.465646E-6
         2982.016     6.419353E-6
         2984.856     6.408155E-6
           2987.7     6.396926E-6
         2990.544     6.385685E-6
         2993.396     6.374396E-6
         2996.245     6.363103E-6
           2999.1     6.351773E-6
         3001.956     6.257693E-6
         3004.813     6.125865E-6
         3007.679     5.994091E-6
         3010.543     5.885614E-6
          3013.41     5.874882E-6
          3016.28     5.864129E-6
         3019.153     5.853355E-6
         3022.031     5.842508E-6
         3024.908     5.831643E-6
         3027.791     5.820741E-6
         3030.674     5.781841E-6
         3033.561     5.651346E-6
          3036.45     5.521172E-6
         3039.342     5.391320E-6
         3042.238     5.353878E-6
         3045.135     5.343590E-6
         3048.035     5.333281E-6
          3050.94     5.322931E-6
         3053.845     5.312540E-6
         3056.754     5.302125E-6
         3059.665     5.291690E-6
         3062.579     5.176460E-6
         3065.498     5.047858E-6
         3068.417     4.919675E-6
         3071.341     4.845907E-6
         3074.266     4.836185E-6
         3077.194     4.826442E-6
         3080.125     4.816678E-6
         3083.058     4.806853E-6
         3085.994     4.797007E-6
         3088.934     4.787142E-6
         3091.877     4.777254E-6
         3094.823     4.767347E-6
         3097.771     4.757427E-6
         3100.721     4.723121E-6
         3103.676     4.613124E-6
          3106.63     4.502784E-6
         3109.591     4.391864E-6
         3112.552     4.382225E-6
         3115.516     4.388883E-6
         3118.485     4.395555E-6
         3121.455     4.402236E-6
         3124.428     4.408930E-6
         3127.404     4.415634E-6
         3130.382     4.406983E-6
         3133.367     4.293476E-6
         3136.349     4.179702E-6
         3139.338     4.065325E-6
         3142.328     4.044740E-6
         3145.321     4.050904E-6
         3148.316     4.057079E-6
         3151.315     4.063248E-6
         3154.316     4.069409E-6
          3157.32     4.075577E-6
         3160.329     4.081761E-6
          3163.34     4.087960E-6
         3166.353     4.094166E-6
          3169.37     4.100387E-6
         3172.387     4.008558E-6
         3175.408     3.890343E-6
         3178.434     3.771584E-6
         3181.461     3.712712E-6
         3184.493     3.718365E-6
         3187.524     3.724020E-6
         3190.563     3.729689E-6
           3193.6     3.735333E-6
         3196.642     3.740989E-6
          3199.69     3.746661E-6
         3202.734     3.752332E-6
         3205.787     3.758026E-6
         3208.841     3.763723E-6
         3211.896     3.690025E-6
         3214.956     3.567345E-6
         3218.017     3.444167E-6
         3221.086     3.366006E-6
         3224.152     3.371119E-6
         3227.224     3.376246E-6
         3230.298     3.381380E-6
         3233.372     3.386524E-6
         3236.453     3.391683E-6
         3239.536     3.396848E-6
         3242.623     3.402058E-6
         3245.711     3.407280E-6
         3248.802     3.412509E-6
         3251.898     3.417734E-6
         3254.995     3.422952E-6
         3258.095     3.428180E-6
         3261.198     3.433419E-6
         3264.304     3.438670E-6
         3267.415     3.443935E-6
         3270.525     3.426586E-6
         3273.643     3.297220E-6
         3276.761     3.167462E-6
         3279.882     3.037180E-6
         3283.005     3.036707E-6
         3286.132     3.041370E-6
         3289.262     3.046040E-6
         3292.394     3.050746E-6
         3295.532     3.055470E-6
         3298.672     3.060202E-6
         3301.812     3.064941E-6
         3304.958     3.069695E-6
         3308.106     3.074455E-6
         3311.257     3.079228E-6
         3314.412     3.084015E-6
         3317.569     3.088809E-6
         3320.728     3.061436E-6
         3323.891     2.926216E-6
         3327.058     2.790353E-6
         3330.227     2.664077E-6
         3333.398     2.668260E-6
         3336.573     2.672451E-6
         3339.754     2.676653E-6
         3342.932     2.680860E-6
         3346.119     2.685084E-6
         3349.306     2.689311E-6
         3352.496     2.693551E-6
         3355.688     2.697799E-6
         3358.884     2.702055E-6
         3362.083     2.706324E-6
         3365.285     2.710602E-6
         3368.492     2.714891E-6
         3371.702     2.719205E-6
         3374.911     2.723538E-6
         3378.127     2.727884E-6
         3381.345     2.671004E-6
         3384.565     2.528390E-6
          3387.79     2.385103E-6
         3391.017     2.287820E-6
         3394.248     2.291512E-6
         3397.479     2.295206E-6
         3400.717     2.298913E-6
         3403.955     2.302630E-6
         3407.197     2.306354E-6
         3410.444     2.310088E-6
          3413.69     2.313832E-6
         3416.943     2.317587E-6
         3420.199     2.321350E-6
         3423.457     2.325150E-6
         3426.717     2.328955E-6
         3429.981     2.332768E-6
         3433.247     2.336619E-6
         3436.519     2.340480E-6
         3439.792     2.344345E-6
          3443.07     2.348231E-6
         3446.349     2.352121E-6
         3449.631     2.356018E-6
         3452.917     2.359953E-6
         3456.205     2.363899E-6
         3459.499     2.367854E-6
         3462.791     2.239412E-6
         3466.093     2.086284E-6
         3469.394     1.932667E-6
         3472.698     1.907043E-6
         3476.006     1.910272E-6
         3479.316     1.913506E-6
         3482.632     1.916771E-6
         3485.947     1.920045E-6
         3489.269     1.923328E-6
         3492.594     1.926626E-6
         3495.918     1.929928E-6
         3499.249     1.933240E-6
         3502.582     1.936579E-6
         3505.918     1.939932E-6
         3509.259     1.943293E-6
         3512.599     1.946680E-6
         3515.948     1.950086E-6
         3519.297     1.953493E-6
         3522.648     1.956916E-6
         3526.003     1.960346E-6
         3529.361     1.963783E-6
         3532.725     1.967269E-6
         3536.089     1.970771E-6
         3539.457     1.974278E-6
          3542.83     1.977784E-6
         3546.204     1.981294E-6
         3549.581     1.984810E-6
         3552.962     1.988358E-6
         3556.345     1.991917E-6
         3559.732     1.995483E-6
         3563.123     1.999084E-6
          3566.52     2.002698E-6
         3569.917     2.006314E-6
         3573.317     1.843288E-6
          3576.72     1.675314E-6
         3580.126     1.512921E-6
         3583.536     1.515683E-6
         3586.949     1.518450E-6
         3590.367     1.521225E-6
         3593.788     1.524011E-6
         3597.209     1.526798E-6
         3600.637     1.529598E-6
         3604.066     1.532418E-6
         3607.499     1.535244E-6
         3610.934     1.538074E-6
         3614.373     1.540900E-6
         3617.819     1.543736E-6
         3621.263     1.546587E-6
         3624.714     1.549470E-6
         3628.166     1.552358E-6
         3631.621     1.555245E-6
         3635.082     1.558134E-6
         3638.542     1.561025E-6
         3642.009     1.563927E-6
          3645.48     1.566837E-6
         3648.952     1.569750E-6
         3652.427     1.572684E-6
         3655.906     1.575631E-6
         3659.387     1.578584E-6
         3662.875     1.581548E-6
         3666.361     1.584513E-6
         3669.857     1.587491E-6
          3673.35     1.590473E-6
          3676.85     1.593465E-6
         3680.352     1.596462E-6
         3683.857     1.599466E-6
         3687.365     1.602477E-6
         3690.877     1.605495E-6
         3694.395     1.608524E-6
         3697.915     1.611558E-6
         3701.437     1.614598E-6
         3704.962     1.617646E-6
          3708.49     1.620699E-6
         3712.022     1.514294E-6
         3715.558     1.325453E-6
         3719.098     1.135589E-6
         3722.642     1.088661E-6
         3726.186     1.090720E-6
         3729.737     1.092785E-6
         3733.289     1.094854E-6
         3736.844     1.096927E-6
         3740.405     1.099006E-6
         3743.966     1.101088E-6
         3747.533     1.103177E-6
         3751.102     1.105269E-6
         3754.677     1.107367E-6
         3758.253     1.109468E-6
         3761.832     1.111567E-6
         3765.415     1.113665E-6
         3769.003     1.115769E-6
         3772.593     1.117885E-6
         3776.188     1.120009E-6
         3779.782     1.122136E-6
         3783.384     1.124258E-6
         3786.987     1.126382E-6
         3790.594     1.128509E-6
         3794.204     1.130629E-6
         3797.817     1.132754E-6
         3801.438     1.134891E-6
         3805.059     1.137037E-6
         3808.683     1.139187E-6
          3812.31     1.141334E-6
         3815.941     1.143480E-6
         3819.575     1.145630E-6
         3823.213     1.147773E-6
         3826.856     1.149919E-6
         3830.503     1.152070E-6
         3834.149     1.154223E-6
         3837.802     1.156382E-6
         3841.458     1.158544E-6
         3845.116     1.160709E-6
          3848.78     1.162879E-6
         3852.443     1.165042E-6
         3856.115     1.167207E-6
         3859.787     1.169375E-6
         3863.465     1.171535E-6
         3867.145     1.173698E-6
         3870.828     1.175864E-6
         3874.516     1.178034E-6
         3878.206     1.180207E-6
         3881.898     1.182376E-6
         3885.597     1.184544E-6
         3889.298     1.186716E-6
         3893.004     1.188890E-6
         3896.711     1.191066E-6
         3900.423     1.193245E-6
         3904.137     1.195415E-6
         3907.855     1.197589E-6
         3911.582     1.199762E-6
         3915.307     1.201928E-6
         3919.036     1.204098E-6
         3922.768     1.206259E-6
         3926.504     1.208420E-6
         3930.244     1.210585E-6
         3933.987     1.212751E-6
         3937.736     1.214923E-6
         3941.486     1.217085E-6
          3945.24     1.219232E-6
         3948.999     1.221384E-6
          3952.76     1.223536E-6
         3956.525     1.225691E-6
         3960.293     1.227847E-6
         3964.064     1.229977E-6
         3967.842     1.232113E-6
         3971.621     1.234249E-6
         3975.406     1.236388E-6
         3979.192     1.238529E-6
         3982.981     1.055712E-6
         3986.777     8.216796E-7
         3990.572     6.224587E-7
         3994.372     6.235105E-7
         3998.179     6.245651E-7
         4001.986     6.250133E-7
           4005.8     6.249045E-7
         4009.615     6.247953E-7
         4013.434     6.246765E-7
         4017.256     6.245561E-7
         4021.082     6.244321E-7
         4024.916     6.243000E-7
         4028.747     6.241675E-7
         4032.586     6.240276E-7
         4036.427     6.238840E-7
         4040.271     6.237394E-7
         4044.119     6.235847E-7
          4047.97     6.234293E-7
         4051.828     6.232687E-7
         4055.689     6.231020E-7
         4059.552     6.229350E-7
         4063.418     6.227589E-7
         4067.288     6.225812E-7
         4071.161     6.223997E-7
         4075.039     6.222104E-7
         4078.922     6.220207E-7
         4082.807     6.218235E-7
         4086.695     6.216233E-7
         4090.589     6.214219E-7
         4094.485     6.212184E-7
         4098.385     6.210142E-7
         4102.288     6.207993E-7
         4106.195     6.205767E-7
         4110.105     6.203536E-7
         4114.022     6.201278E-7
         4117.942     6.199015E-7
         4121.864     6.196668E-7
          4125.79     6.194226E-7
         4129.719     6.191778E-7
         4133.652     6.189304E-7
         4137.589     6.186822E-7
         4141.534     6.184325E-7
         4145.477     6.181814E-7
         4149.427     6.179296E-7
         4153.379     6.176626E-7
         4157.334     6.173927E-7
         4161.293     6.171219E-7
         4165.257     6.168494E-7
         4169.229     6.165759E-7
         4173.199     6.162945E-7
         4177.171     6.160105E-7
         4181.152     6.157255E-7
         4185.134     6.154391E-7
          4189.12     6.151519E-7
         4193.109     6.148572E-7
         4197.105     6.145600E-7
         4201.102     6.145095E-7
         4205.101     6.151091E-7
          4209.11     6.157106E-7
         4213.119     6.163113E-7
         4217.132     6.169124E-7
         4221.148     6.175117E-7
         4225.168     6.181050E-7
         4229.197     6.187000E-7
         4233.222     6.192936E-7
         4237.256     6.198886E-7
         4241.292     6.204813E-7
         4245.331     6.210684E-7
         4249.375     6.216566E-7
         4253.421     6.222443E-7
         4257.472     6.228329E-7
         4261.529     6.234188E-7
          4265.59     6.239997E-7
         4269.653     6.245811E-7
         4273.719     6.251626E-7
         4277.789     6.257445E-7
         4281.863     6.263232E-7
         4285.941     6.268976E-7
         4290.025     6.274729E-7
         4294.111     6.280472E-7
         4298.203     6.286226E-7
         4302.294     6.291932E-7
         4306.394     6.297615E-7
         4310.496     6.303301E-7
         4314.601     6.308985E-7
         4318.712     6.314678E-7
         4322.825     6.320366E-7
         4326.945     6.326065E-7
         4331.063     6.331759E-7
          4335.19     6.337457E-7
         4339.319     6.343161E-7
         4343.452     6.348797E-7
         4347.588     6.354422E-7
         4351.731     6.360024E-7
         4355.878     6.365581E-7
         4360.024     6.371138E-7
         4364.179     6.376777E-7
         4368.336     6.382419E-7
         4372.496     6.388016E-7
          4376.66     6.393585E-7
         4380.831     6.399162E-7
         4385.001     6.404732E-7
          4389.18     6.410318E-7
         4393.362     6.415833E-7
         4397.546     6.421336E-7
         4401.734     6.426874E-7
         4405.926     6.432463E-7
         4410.125     6.438061E-7
         4414.323     6.443570E-7
         4418.527     6.449089E-7
         4422.737     6.454616E-7
         4426.952     6.460148E-7
         4431.168     6.465656E-7
         4435.388     6.471105E-7
         4439.615     6.476561E-7
         4443.841     6.482086E-7
         4448.073     6.487630E-7
         4452.312     6.493130E-7
         4456.554     6.498598E-7
         4460.799     6.504069E-7
         4465.047     6.509539E-7
           4469.3     6.515020E-7
         4473.556     6.520498E-7
         4477.816     6.525984E-7
         4482.083     6.531475E-7
         4486.355     6.536971E-7
         4490.627     6.542471E-7
         4494.904     6.547968E-7
         4499.185     6.553473E-7
          4503.47     6.577483E-7
         4507.759     6.605871E-7
         4512.055     6.634269E-7
         4516.354     6.662660E-7
         4520.656     6.691076E-7
         4524.961     6.719591E-7
         4529.271     6.748144E-7
         4533.584     6.776659E-7
         4537.902     6.805196E-7
         4542.226     6.833776E-7
         4546.555     6.862391E-7
         4550.885     6.891039E-7
         4555.219     6.919789E-7
         4559.557     6.948573E-7
           4563.9     6.977312E-7
         4568.246     7.006075E-7
         4572.597     7.034867E-7
         4576.955     7.063711E-7
         4581.316     7.092582E-7
         4585.677     7.121460E-7
         4590.046     7.150401E-7
         4594.418     7.179358E-7
         4598.793     7.208350E-7
         4603.173     7.237373E-7
          4607.56     7.266450E-7
         4611.951     7.295557E-7
          4616.34     7.324664E-7
         4620.739     7.353823E-7
          4625.14     7.382915E-7
         4629.545     7.412042E-7
         4633.954     7.441288E-7
          4638.37     7.470597E-7
          4642.79     7.499938E-7
         4647.209     7.529276E-7
         4651.635     7.558669E-7
         4656.068     7.588105E-7
         4660.502     7.617548E-7
         4664.941     7.646938E-7
         4669.386     7.676377E-7
         4673.831     7.705903E-7
         4678.285     7.735514E-7
          4682.74     7.765135E-7
         4687.202     7.794811E-7
         4691.667     7.824468E-7
         4696.135     7.854086E-7
          4700.61     7.883772E-7
         4705.084     7.913545E-7
         4709.565     7.943374E-7
         4714.053     4.741847E-7
         4718.545     1.164494E-7
         4723.039              0.
         4727.537              0.
          4732.04              0.
         4736.546              0.
         4741.057              0.
         4745.575              0.
         4750.097              0.
         4754.621              0.
         4759.149              0.
         4763.682              0.
         4768.219              0.
          4772.76              0.
         4777.308              0.
         4781.858              0.
         4786.415              0.
         4790.973              0.
         4795.536              0.
         4800.103              0.
         4804.675              0.
         4809.253              0.
         4813.833              0.
         4818.421              0.
          4823.01              0.
         4827.603              0.
         4832.201              0.
         4836.803              0.
         4841.409              0.
         4846.023              0.
         4850.641              0.
         4855.258              0.
         4859.885              0.
         4864.513              0.
         4869.146              0.
         4873.783              0.
         4878.428              0.
         4883.077              0.
         4887.724              0.
         4892.379              0.
         4897.042              0.
         4901.705              0.
         4906.374              0.
         4911.049              0.
         4915.726              0.
         4920.405              0.
         4925.094              0.
         4929.787              0.
         4934.482              0.
         4939.182              0.
         4943.886              0.
         4948.594              0.
         4953.307              0.
         4958.027              0.
         4962.752              0.
         4967.479              0.
         4972.209              0.
         4976.945              0.
         4981.685              0.
         4986.429              0.
         4991.181              0.
         4995.938              0.
         5000.695              0.
         5005.458              0.
         5010.225              0.
         5014.997              0.
         5019.773              0.
         5024.557              0.
         5029.344              0.
         5034.134              0.
         5038.929              0.
         5043.728              0.
         5048.531              0.
         5053.339              0.
         5058.155              0.
         5062.972              0.
         5067.797              0.
         5072.624              0.
         5077.455              0.
          5082.29              0.
          5087.13              0.
         5091.975              0.
         5096.828              0.
         5101.685              0.
         5106.543              0.
         5111.407              0.
         5116.275              0.
         5121.147              0.
         5126.025              0.
          5130.91              0.
         5135.799              0.
          5140.69              0.
         5145.583              0.
         5150.486              0.
         5155.392              0.
         5160.302              0.
         5165.219              0.
         5170.141              0.
         5175.063              0.
         5179.991              0.
         5184.927              0.
         5189.865              0.
         5194.808              0.
         5199.758              0.
         5204.713              0.
         5209.667              0.
         5214.629              0.
         5219.598              0.
         5224.569              0.
         5229.545              0.
         5234.528              0.
         5239.514              0.
         5244.501              0.
         5249.499              0.
         5254.501              0.
         5259.505              0.
         5264.514              0.
         5269.528              0.
         5274.546              0.
          5279.57              0.
         5284.601              0.
         5289.634              0.
         5294.675              0.
         5299.717              0.
         5304.765              0.
         5309.817              0.
         5314.874              0.
         5319.938              0.
         5325.005              0.
          5330.08              0.
         5335.156              0.
         5340.237              0.
         5345.323              0.
         5350.414              0.
         5355.512              0.
         5360.613              0.
         5365.721              0.
         5370.831              0.
         5375.946              0.
         5381.066              0.
         5386.191              0.
         5391.321              0.
         5396.458              0.
         5401.601              0.
         5406.745              0.
         5411.895              0.
         5417.049              0.
         5422.208              0.
         5427.372              0.
         5432.544              0.
         5437.721              0.
         5442.899              0.
          5448.08              0.
         5453.272              0.
         5458.465              0.
         5463.664              0.
         5468.871              0.
         5474.079              0.
         5479.289              0.
         5484.511              0.
         5489.737              0.
         5494.965              0.
         5500.199              0.
         5505.437              0.
         5510.683              0.
         5515.929              0.
         5521.185              0.
         5526.446              0.
         5531.709              0.
         5536.978              0.
         5542.251              0.
         5547.533              0.
         5552.813              0.
         5558.104              0.
         5563.401              0.
         5568.699              0.
         5574.003              0.
         5579.312              0.
         5584.625              0.
         5589.944              0.
         5595.271              0.
         5600.603              0.
         5605.937              0.
         5611.275              0.
          5616.62              0.
         5621.969              0.
         5627.323              0.
         5632.686              0.
          5638.05              0.
         5643.422              0.
         5648.797              0.
         5654.177              0.
         5659.562              0.
         5664.952              0.
         5670.347              0.
          5675.75              0.
         5681.159              0.
          5686.57              0.
         5691.986              0.
         5697.407              0.
         5702.833              0.
         5708.264              0.
         5713.704              0.
         5719.148              0.
         5724.595              0.
         5730.044              0.
         5735.504              0.
         5740.967              0.
         5746.435              0.
         5751.911              0.
         5757.392              0.
         5762.875              0.
          5768.36              0.
         5773.857              0.
         5779.356              0.
          5784.86              0.
         5790.373              0.
         5795.891              0.
         5801.411              0.
         5806.933              0.
         5812.466              0.
         5818.002              0.
         5823.542              0.
         5829.089              0.
         5834.644              0.
         5840.197              0.
         5845.763              0.
         5851.333              0.
         5856.906              0.
         5862.484              0.
         5868.067              0.
         5873.659              0.
          5879.25              0.
         5884.853              0.
         5890.457              0.
          5896.07              0.
         5901.686              0.
         5907.306              0.
         5912.936              0.
         5918.563              0.
         5924.204              0.
         5929.846              0.
         5935.497              0.
         5941.149              0.
         5946.808              0.
         5952.471              0.
          5958.14              0.
         5963.814              0.
         5969.498              0.
         5975.187              0.
         5980.877              0.
         5986.573              0.
         5992.274              0.
         5997.981              0.
         6003.694              0.
         6009.415              0.
         6015.142              0.
          6020.87              0.
         6026.604              0.
         6032.344              0.
         6038.089              0.
          6043.84              0.
         6049.599              0.
         6055.364              0.
         6061.131              0.
           6066.9              0.
         6072.682              0.
         6078.465              0.
         6084.254              0.
         6090.052              0.
         6095.852              0.
         6101.661              0.
         6107.469              0.
         6113.289              0.
         6119.111              0.
         6124.938              0.
         6130.775              0.
         6136.614              0.
         6142.462              0.
         6148.309              0.
         6154.164              0.
         6160.029              0.
         6165.896              0.
         6171.771              0.
         6177.649              0.
         6183.529              0.
         6189.421              0.
         6195.316              0.
          6201.22              0.
         6207.126              0.
         6213.038              0.
         6218.958              0.
         6224.877              0.
         6230.809              0.
         6236.743              0.
         6242.687              0.
         6248.632              0.
         6254.583              0.
         6260.543              0.
         6266.502              0.
         6272.474              0.
         6278.448              0.
         6284.431              0.
         6290.416              0.
         6296.407              0.
         6302.403              0.
         6308.406              0.
         6314.417              0.
         6320.431              0.
         6326.454              0.
         6332.479              0.
          6338.51              0.
         6344.546              0.
         6350.589              0.
         6356.637              0.
         6362.695              0.
         6368.754              0.
         6374.823              0.
         6380.895              0.
         6386.972              0.
         6393.055              0.
         6399.143              0.
         6405.241              0.
         6411.341              0.
         6417.451              0.
         6423.563              0.
         6429.681              0.
         6435.804              0.
         6441.934              0.
         6448.072              0.
         6454.213              0.
         6460.364              0.
         6466.513              0.
         6472.675              0.
         6478.839              0.
          6485.01              0.
         6491.189              0.
         6497.372              0.
         6503.563              0.
         6509.753              0.
         6515.957              0.
         6522.163              0.
         6528.374              0.
         6534.592              0.
         6540.818              0.
         6547.052              0.
         6553.283              0.
         6559.524              0.
         6565.775              0.
         6572.028              0.
         6578.288              0.
         6584.556              0.
         6590.824              0.
         6597.104              0.
         6603.387              0.
          6609.68              0.
         6615.975              0.
         6622.275              0.
         6628.586              0.
         6634.896              0.
         6641.218              0.
         6647.543              0.
         6653.878              0.
         6660.215              0.
         6666.558              0.
         6672.911              0.
         6679.262              0.
         6685.624              0.
         6691.994              0.
         6698.371              0.
         6704.751              0.
         6711.136              0.
         6717.528              0.
         6723.925              0.
         6730.329              0.
         6736.743              0.
         6743.163              0.
         6749.584              0.
         6756.013              0.
         6762.447              0.
         6768.887              0.
         6775.334              0.
         6781.791              0.
          6788.25              0.
         6794.718              0.
         6801.189              0.
         6807.667              0.
          6814.15              0.
          6820.64              0.
         6827.139              0.
         6833.642              0.
         6840.153              0.
         6846.664              0.
         6853.185              0.
         6859.715              0.
         6866.249              0.
         6872.792              0.
         6879.337              0.
         6885.893              0.
         6892.447              0.
         6899.011              0.
         6905.585              0.
         6912.162              0.
         6918.745              0.
         6925.338              0.
         6931.938              0.
         6938.536              0.
         6945.144              0.
         6951.762              0.
         6958.383              0.
          6965.01              0.
         6971.647              0.
         6978.283              0.
         6984.933              0.
         6991.585              0.
         6998.248              0.
         7004.913              0.
         7011.584              0.
         7018.266              0.
         7024.946              0.
          7031.64              0.
         7038.337              0.
         7045.044              0.
         7051.753              0.
         7058.469              0.
         7065.196              0.
          7071.92              0.
         7078.656              0.
         7085.401              0.
         7092.149              0.
         7098.908              0.
         7105.668              0.
         7112.439              0.
         7119.209              0.
          7125.99              0.
          7132.78              0.
         7139.573              0.
         7146.377              0.
         7153.183              0.
         7159.996              0.
         7166.815              0.
          7173.64              0.
         7180.476              0.
         7187.315              0.
         7194.164              0.
         7201.016              0.
         7207.874              0.
         7214.738              0.
         7221.609              0.
         7228.487              0.
         7235.375              0.
          7242.27              0.
         7249.167              0.
         7256.068              0.
         7262.982              0.
         7269.899              0.
         7276.823              0.
         7283.757              0.
         7290.694              0.
         7297.638              0.
         7304.588              0.
         7311.549              0.
         7318.512              0.
         7325.482              0.
         7332.463              0.
         7339.446              0.
         7346.436              0.
         7353.433              0.
          7360.44              0.
          7367.45              0.
         7374.467              0.
         7381.494              0.
         7388.524              0.
         7395.561              0.
         7402.604              0.
         7409.658              0.
         7416.715              0.
         7423.779              0.
         7430.853              0.
         7437.926              0.
          7445.01              0.
         7452.104              0.
         7459.206              0.
          7466.31              0.
          7473.42              0.
         7480.538              0.
         7487.663              0.
         7494.793              0.
         7501.936              0.
          7509.08              0.
         7516.236              0.
         7523.394              0.
          7530.56              0.
         7537.731              0.
          7544.91              0.
           7552.1              0.
         7559.292              0.
         7566.496              0.
         7573.702              0.
         7580.911              0.
         7588.135              0.
         7595.362              0.
           7602.6              0.
          7609.84              0.
         7617.092              0.
         7624.347              0.
         7631.604              0.
         7638.876              0.
         7646.151              0.
         7653.438              0.
         7660.727              0.
         7668.026              0.
          7675.33              0.
         7682.635              0.
         7689.956              0.
          7697.28              0.
         7704.611              0.
         7711.953              0.
         7719.302              0.
         7726.649              0.
         7734.008              0.
         7741.378              0.
          7748.75              0.
          7756.13              0.
         7763.521              0.
         7770.915              0.
         7778.316              0.
         7785.724              0.
         7793.144              0.
         7800.565              0.
         7807.995              0.
         7815.435              0.
         7822.878              0.
         7830.329              0.
         7837.786              0.
         7845.251              0.
         7852.727              0.
         7860.206              0.
         7867.696              0.
         7875.189              0.
         7882.685              0.
         7890.196              0.
         7897.711              0.
         7905.237              0.
         7912.766              0.
         7920.302              0.
         7927.845              0.
         7935.395              0.
         7942.957              0.
         7950.522              0.
         7958.098              0.
         7965.677              0.
         7973.264              0.
         7980.857              0.
         7988.458              0.
          7996.07     5.321028E-7
         8003.686     5.507360E-7
         8011.313              0.
         8018.943              0.
          8026.58              0.
         8034.224              0.
         8041.876              0.
         8049.535              0.
         8057.206              0.
         8064.883              0.
         8072.564     2.120873E-7
         8080.248     8.220466E-7
         8087.948     8.170687E-7
         8095.651     3.531928E-7
         8103.361              0.
         8111.083              0.
         8118.808              0.
         8126.544              0.
         8134.279     3.369466E-7
         8142.031     6.235668E-7
         8149.785     1.670535E-8
         8157.547     5.831150E-7
          8165.32     3.592890E-7
         8173.097              0.
         8180.885              0.
         8188.672              0.
         8196.476              0.
         8204.281     3.182796E-7
         8212.096     5.837996E-7
         8219.921     5.804078E-9
         8227.749              0.
         8235.581              0.
         8243.429     2.466289E-7
         8251.284     8.062594E-7
         8259.143     1.358578E-6
         8267.009     4.217218E-7
         8274.887              0.
         8282.768     1.924569E-7
         8290.651     6.456606E-7
         8298.552     9.933485E-8
         8306.455              0.
          8314.37              0.
         8322.289     1.537599E-7
          8330.22     6.670035E-7
         8338.153     6.623038E-7
          8346.09     2.571379E-7
         8354.043              0.
         8361.999              0.
         8369.968              0.
         8377.938     5.144894E-7
         8385.923     2.633852E-7
         8393.904              0.
         8401.898     1.218372E-7
         8409.905     6.335779E-7
         8417.915     6.374833E-7
         8425.937     2.581577E-7
         8433.961              0.
         8441.993     1.257538E-7
         8450.033     6.266203E-7
         8458.081     1.202169E-7
         8466.141              0.
         8474.204              0.
         8482.274              0.
         8490.357     2.206629E-8
         8498.443     5.193161E-7
         8506.538     6.126900E-7
         8514.639     3.272000E-7
         8522.748     1.670498E-7
          8530.87     6.054564E-7
         8538.994     6.030116E-7
         8547.132     6.005481E-7
         8555.267     5.980708E-7
          8563.42     3.918915E-7
         8571.575     9.341839E-8
         8579.738     5.750729E-7
         8587.915     5.879779E-7
         8596.094     5.854120E-7
         8604.285     3.330765E-7
         8612.475              0.
         8620.682     3.937202E-8
         8628.893     5.112961E-7
          8637.11     5.723148E-7
         8645.341     2.654059E-7
         8653.574              0.
         8661.821     1.027418E-7
         8670.065     5.576330E-7
         8678.327     9.342457E-8
         8686.593              0.
         8694.865     2.689329E-7
         8703.151     5.498812E-7
         8711.439     5.469826E-7
         8719.736     5.440660E-7
         8728.041     5.411317E-7
         8736.354     8.801130E-7
         8744.679     8.200080E-7
         8753.007     3.721907E-7
         8761.348     7.131980E-8
         8769.692     5.100033E-7
         8778.039     1.025865E-7
         8786.404     3.330802E-7
         8794.772     2.702693E-7
         8803.153              0.
         8811.537     7.851524E-8
         8819.929     5.040458E-7
         8828.334     5.045114E-7
         8836.737     1.635730E-7
         8845.157     2.569086E-7
         8853.582     3.176542E-7
         8862.019     9.925577E-8
         8870.459     4.884716E-7
         8878.906     4.852079E-7
         8887.367     4.819231E-7
         8895.827     1.997221E-7
         8904.304              0.
         8912.784              0.
         8921.277              0.
         8929.774              0.
         8938.278     3.823091E-7
         8946.791     4.584014E-7
         8955.313     4.549204E-7
         8963.846     4.513931E-7
         8972.383     4.478488E-7
         8980.933     4.442843E-7
         8989.486     4.407024E-7
         8998.048     4.371021E-7
         9006.617     1.467625E-7
         9015.195              0.
         9023.786     1.618575E-7
          9032.38     5.252826E-7
         9040.982     8.008089E-7
         9049.598     4.346674E-7
         9058.217     4.146065E-7
         9066.844     4.113407E-7
         9075.479     4.080577E-7
         9084.122     2.379135E-7
         9092.778     1.115323E-7
         9101.438     3.981029E-7
         9110.111     3.991433E-7
         9118.782     7.351001E-7
         9127.472     1.961932E-7
         9136.165     2.370987E-7
         9144.866     3.811630E-7
          9153.58     3.777207E-7
         9162.298     3.742620E-7
         9171.029     3.707835E-7
         9179.759     3.672911E-7
         9188.506     5.435340E-8
         9197.257     2.614248E-7
         9206.017     3.566974E-7
         9214.789     1.840131E-7
         9223.565     1.246272E-7
         9232.354     2.644870E-7
         9241.143     7.822491E-8
         9249.943     6.735179E-7
         9258.758     8.321914E-8
         9267.576     2.509583E-7
         9276.407     3.275043E-7
         9285.242     4.934598E-7
          9294.08     5.093933E-7
         9302.937     2.233303E-7
         9311.797     5.612797E-8
          9320.67     2.878634E-7
         9329.547     1.380603E-8
         9338.438              0.
         9347.331              0.
         9356.229              0.
         9365.145              0.
         9374.063     1.158787E-7
         9382.996     2.812120E-7
         9391.933     2.772362E-7
         9400.877     2.492802E-7
         9409.836     4.417004E-9
         9418.792              0.
         9427.768     2.028468E-7
         9436.746     2.570767E-7
         9445.733     1.079403E-7
         9454.735     1.178532E-7
         9463.739     2.447541E-7
         9472.753     2.406090E-7
         9481.774     1.944901E-7
         9490.805     1.868985E-8
         9499.849     2.246055E-7
         9508.896     2.249600E-7
         9517.957     2.218844E-7
         9527.022     2.188144E-7
         9536.096     2.157492E-7
         9545.178     2.126885E-7
         9554.269     1.201496E-7
         9563.373              0.
          9572.48     5.048555E-8
         9581.603     1.683594E-7
         9590.729              0.
         9599.862              0.
         9609.005              0.
         9618.156     1.536379E-7
         9627.321     1.853489E-7
          9636.49     6.399577E-8
         9645.674              0.
         9654.854     8.559746E-8
         9664.055     1.030486E-7
         9673.259              0.
         9682.472              0.
         9691.698              0.
         9700.929              0.
         9710.173              0.
         9719.415              0.
         9728.672     1.322424E-7
         9737.942     3.076971E-8
         9747.217              0.
         9756.506     9.342400E-8
         9765.797     5.909432E-8
         9775.098     7.014400E-8
         9784.408     7.527284E-8
         9793.727              0.
         9803.059              0.
         9812.396              0.
          9821.74              0.
           9831.1              0.
         9840.463              0.
         9849.835              0.
         9859.216     1.023165E-7
          9868.61     1.502387E-8
          9878.01              0.
         9887.417     7.589305E-8
         9896.839     9.944075E-8
          9906.26     3.611969E-8
         9915.699              0.
         9925.143              0.
         9934.601              0.
         9944.063              0.
         9953.533     2.909691E-8
         9963.018     5.553648E-8
         9972.501              0.
         9982.004     1.481681E-8
         9991.511     6.040585E-8
         10001.03     7.072779E-9
         10010.56     6.331083E-8
         10020.09              0.
         10029.63              0.
         10039.19              0.
         10048.75              0.
         10058.32              0.
         10067.91              0.
          10077.5              0.
         10087.09              0.
          10096.7     3.633221E-8
         10106.32     1.946976E-8
         10115.94     3.059587E-8
         10125.58     2.218438E-8
         10135.23              0.
         10144.88     2.318457E-8
         10154.54     4.616646E-8
         10164.22     4.486202E-8
          10173.9     4.356863E-8
         10183.59     2.712275E-8
         10193.28     1.347019E-8
           10203.     2.781624E-8
         10212.72              0.
         10222.45              0.
         10232.18     7.866609E-9
         10241.93     3.482739E-8
         10251.68     2.796978E-8
         10261.45              0.
         10271.23              0.
         10281.01              0.
         10290.79              0.
          10300.6              0.
         10310.41              0.
         10320.23              0.
         10330.06              0.
         10339.91              0.
         10349.76              0.
          10359.6              0.
         10369.48              0.
         10379.36              0.
         10389.24              0.
         10399.14              0.
         10409.04              0.
         10418.97     1.339940E-8
         10428.88     1.565591E-9
         10438.82              0.
         10448.76              0.
         10458.71              0.
         10468.68              0.
         10478.65              0.
         10488.63              0.
         10498.61     6.331628E-9
         10508.61    9.813474E-10
         10518.63     5.961335E-9
         10528.65     6.735983E-9
         10538.68    8.684912E-10
         10548.71              0.
         10558.76     5.465293E-9
         10568.82    7.184385E-10
         10578.88              0.
         10588.97              0.
         10599.05              0.
         10609.15              0.
         10619.25              0.
         10629.37              0.
         10639.49              0.
         10649.62     4.652070E-9
         10659.78    1.048259E-10
         10669.93              0.
         10680.09              0.
         10690.26              0.
         10700.44              0.
         10710.63    2.524926E-10
         10720.83     3.520398E-9
         10731.06    3.919654E-10
         10741.28     3.573080E-9
         10751.51     2.923207E-9
         10761.75              0.
           10772.              0.
         10782.25              0.
         10792.52              0.
          10802.8              0.
         10813.09              0.
          10823.4              0.
         10833.71              0.
         10844.03              0.
         10854.37              0.
         10864.69    9.939369E-10
         10875.04    9.966349E-10
         10885.41              0.
         10895.78              0.
         10906.15              0.
         10916.54              0.
         10926.94              0.
         10937.34              0.
         10947.76              0.
          10958.2    9.859583E-10
         10968.63    1.517352E-10
         10979.08    9.265264E-10
         10989.54    9.320891E-10
           11000.              0.
