#  Table wf2f791wsys.tab  Mon 12:21:54 02-Jun-97

#      WAVELENGTH      THROUGHPUT
#       angstroms                

            1850.     2.712839E-7
         1851.651     2.338935E-7
         1853.301     1.961762E-7
         1854.956     1.580210E-7
         1856.611     1.195498E-7
         1858.267     8.070740E-8
         1859.925     4.146878E-8
         1861.584     6.025959E-8
         1863.246     8.200907E-8
         1864.909     1.039661E-7
         1866.572     1.261156E-7
         1868.237     1.484743E-7
         1869.904     1.710551E-7
         1871.573     2.493237E-7
         1873.242     3.316952E-7
         1874.913     4.148440E-7
         1876.585     4.987797E-7
          1878.26     5.835686E-7
         1879.937     6.688953E-7
         1881.613     7.436498E-7
         1883.292     8.185784E-7
         1884.973     8.941531E-7
         1886.654     9.702879E-7
         1888.338     1.047079E-6
         1890.023     1.124856E-6
         1891.709     1.230703E-6
         1893.396     1.337410E-6
         1895.086     1.445034E-6
         1896.775     1.553384E-6
         1898.469     1.662798E-6
         1900.163     1.749682E-6
         1901.857     1.617793E-6
         1903.555     1.484580E-6
         1905.254     1.350202E-6
         1906.953     1.214751E-6
         1908.655     1.078050E-6
         1910.357     9.400486E-7
         1912.061     8.000473E-7
         1913.768     6.587650E-7
         1915.476     5.162681E-7
         1917.184     3.726454E-7
         1918.894     2.278021E-7
         1920.606     1.258389E-7
          1922.32     1.038777E-7
         1924.035     8.172882E-8
         1925.752     5.940296E-8
          1927.47     3.687578E-8
         1929.189     1.417071E-8
          1930.91     1.914189E-8
         1932.634     4.910747E-8
         1934.358     7.932399E-8
         1936.084     1.097727E-7
         1937.811     1.404777E-7
          1939.54     1.714553E-7
          1941.27     2.133063E-7
         1943.003     2.594026E-7
         1944.737     3.058817E-7
          1946.47     3.526854E-7
         1948.207     3.999299E-7
         1949.947     4.475874E-7
         1951.685     3.838058E-7
         1953.427     3.158668E-7
         1955.171     2.473499E-7
         1956.913     1.783359E-7
          1958.66     1.086540E-7
         1960.408     5.650714E-8
         1962.157     6.372176E-8
         1963.908     7.099991E-8
         1965.658     7.832804E-8
         1967.413     8.572415E-8
         1969.169     9.318029E-8
         1970.925     9.312379E-8
         1972.684     8.622810E-8
         1974.444     7.927662E-8
         1976.205     7.226490E-8
         1977.969     6.518442E-8
         1979.734     5.805165E-8
           1981.5     4.919129E-8
         1983.268     3.995262E-8
         1985.037     3.064120E-8
         1986.809     2.124654E-8
         1988.581     1.177943E-8
         1990.355     4.820152E-9
         1992.131     8.198758E-9
         1993.908     1.160507E-8
         1995.688     1.504342E-8
         1997.467     1.850324E-8
          1999.25     2.199527E-8
         2001.034     2.670333E-8
         2002.818     3.231437E-8
         2004.606     3.798910E-8
         2006.396     4.371433E-8
         2008.184     4.948584E-8
         2009.976     5.531849E-8
         2011.769     5.316675E-8
         2013.565     5.088330E-8
         2015.362     4.857621E-8
         2017.158     4.624837E-8
         2018.958     4.389397E-8
          2020.76     4.052575E-8
         2022.563     3.576408E-8
         2024.368     3.095285E-8
         2026.173     2.609836E-8
         2027.982     2.119383E-8
         2029.791     1.624533E-8
         2031.602     1.377589E-8
         2033.414     1.161618E-8
         2035.228     9.435863E-9
         2037.044     7.233517E-9
         2038.861     5.011711E-9
         2040.681     3.801662E-9
         2042.502     4.318188E-9
         2044.324     4.839094E-9
         2046.147     5.364644E-9
         2047.974     5.895245E-9
           2049.8     6.430247E-9
          2051.63     7.483964E-9
         2053.461     8.610416E-9
         2055.291     9.745589E-9
         2057.125     1.089211E-8
         2058.961     1.204880E-8
         2060.798     1.221840E-8
         2062.637     1.108483E-8
         2064.477     9.941542E-9
         2066.318     8.787897E-9
         2068.164     7.622297E-9
         2070.007     6.457635E-9
         2071.855     7.728891E-9
         2073.704     9.010978E-9
         2075.553     1.030326E-8
         2077.405     1.160644E-8
         2079.259     1.292180E-8
         2081.113     2.622375E-8
         2082.971     4.766509E-8
         2084.829     6.927495E-8
         2086.688     9.106530E-8
          2088.55     1.130542E-7
         2090.414     1.289245E-7
         2092.279     1.227692E-7
         2094.145     1.165614E-7
         2096.014     1.102944E-7
         2097.885     1.039737E-7
         2099.756     9.760237E-8
          2101.63     8.353281E-8
         2103.503     6.821618E-8
         2105.381     5.275828E-8
          2107.26     3.717249E-8
         2109.139     2.147051E-8
         2111.022     2.221328E-8
         2112.906     3.698645E-8
         2114.789     5.185490E-8
         2116.677     6.685764E-8
         2118.564     8.196609E-8
         2120.455     9.043638E-8
         2122.348     7.755539E-8
         2124.241     6.458669E-8
         2126.135     5.151826E-8
         2128.033     3.834458E-8
         2129.932     2.507028E-8
         2131.832     2.338343E-8
         2133.734     2.211667E-8
         2135.637     2.084067E-8
         2137.544     1.955357E-8
          2139.45     1.826293E-8
         2141.359     1.621760E-8
          2143.27     1.385238E-8
         2145.182     1.147066E-8
         2147.096     9.069959E-9
         2149.011     6.652935E-9
         2150.929     6.891562E-9
         2152.848     9.987393E-9
         2154.768     1.310473E-8
         2156.692     1.624766E-8
         2158.615     1.940629E-8
         2160.541     2.290493E-8
         2162.469     2.723250E-8
         2164.397     3.158269E-8
          2166.33     3.596939E-8
         2168.263     4.038228E-8
         2170.196     4.365548E-8
         2172.133     3.661029E-8
          2174.07     2.952707E-8
         2176.011     2.239494E-8
         2177.953     1.521906E-8
         2179.895     8.004722E-9
          2181.84     1.929528E-8
         2183.787     3.171647E-8
         2185.735     4.420102E-8
         2187.686     5.676171E-8
         2189.637     6.938463E-8
          2191.59     6.769498E-8
         2193.546     6.269703E-8
         2195.503     5.767378E-8
         2197.462     5.262701E-8
         2199.423     4.755035E-8
         2201.385     5.356462E-8
         2203.348     6.434983E-8
         2205.315     7.531154E-8
         2207.283     8.644259E-8
         2209.252     9.773674E-8
         2211.222     9.188594E-8
         2213.196     7.523407E-8
          2215.17     5.832826E-8
         2217.147     4.114217E-8
         2219.125     2.368696E-8
         2221.104     1.496249E-8
         2223.086     1.327433E-8
         2225.071     1.155871E-8
         2227.055     9.819785E-9
         2229.042     8.052093E-9
         2231.031     7.064873E-9
         2233.021     6.817846E-9
         2235.015     6.566422E-9
         2237.008     6.311196E-9
         2239.003     6.051814E-9
         2241.002     7.417364E-9
         2242.999     1.043024E-8
         2245.002     1.348939E-8
         2247.005     1.658610E-8
         2249.009     1.972424E-8
         2251.016     2.192705E-8
         2253.024     2.319650E-8
         2255.033     2.448112E-8
         2257.046     2.578193E-8
         2259.061     2.709805E-8
         2261.075     2.544907E-8
         2263.092     2.115703E-8
         2265.112     1.680604E-8
         2267.134     1.239843E-8
         2269.156     7.937201E-9
         2271.181     6.383469E-9
         2273.207     6.944491E-9
         2275.234     7.512025E-9
         2277.266     8.086795E-9
         2279.296     8.666953E-9
          2281.33     1.083686E-8
         2283.366     1.387438E-8
         2285.402     1.694370E-8
         2287.441     2.005233E-8
         2289.483     2.319639E-8
         2291.525     2.874587E-8
          2293.57     3.517146E-8
         2295.615     4.166100E-8
         2297.663     4.824465E-8
         2299.715     5.491270E-8
         2301.765     5.426942E-8
          2303.82     5.241603E-8
         2305.876     5.053791E-8
         2307.932     4.863612E-8
         2309.992     4.670805E-8
         2312.051     3.944553E-8
         2314.116     3.206283E-8
          2316.18     2.460142E-8
         2318.246     1.705404E-8
         2320.315     1.091858E-8
         2322.385     1.314736E-8
         2324.457     1.540216E-8
         2326.531     1.768017E-8
         2328.606     1.998308E-8
         2330.685     2.058731E-8
         2332.764     1.766795E-8
         2334.845     1.471519E-8
         2336.927     1.172958E-8
         2339.012     8.710642E-9
         2341.101     1.340500E-8
         2343.188     2.513306E-8
         2345.279     3.698764E-8
         2347.372     4.897487E-8
         2349.467     6.108700E-8
         2351.562     5.858007E-8
         2353.661     5.098094E-8
         2355.759     4.331100E-8
         2357.862     3.554946E-8
         2359.966     2.770664E-8
         2362.071     2.391582E-8
         2364.179     2.015184E-8
         2366.288     1.635152E-8
         2368.398     1.251209E-8
         2370.512     1.037599E-8
         2372.628     1.370671E-8
         2374.744     1.706753E-8
         2376.863     2.046281E-8
         2378.983     2.388879E-8
         2381.105     2.364999E-8
          2383.23     1.998716E-8
         2385.357     1.628894E-8
         2387.485     1.255694E-8
         2389.615     8.789321E-9
         2391.747     8.313108E-9
         2393.881     8.570419E-9
         2396.017     8.830002E-9
         2398.154     9.091534E-9
         2400.293     9.617088E-9
         2402.435     1.180480E-8
          2404.58     1.401215E-8
         2406.724     1.623743E-8
         2408.872     1.848349E-8
         2411.022     2.135154E-8
         2413.171     2.490757E-8
         2415.326     2.850058E-8
         2417.479     3.211721E-8
         2419.637     3.576946E-8
         2421.796     3.207592E-8
         2423.957     2.685537E-8
          2426.12     2.158674E-8
         2428.284     1.627643E-8
         2430.451     1.286757E-8
         2432.619     1.688550E-8
         2434.789     2.093589E-8
         2436.962     2.502207E-8
         2439.136     2.914096E-8
         2441.312     3.745017E-8
          2443.49     4.857392E-8
          2445.67     5.979308E-8
         2447.853     7.110297E-8
         2450.036     8.204296E-8
         2452.222     6.634895E-8
         2454.409     5.052869E-8
           2456.6     3.457104E-8
         2458.792     1.848794E-8
         2460.985     2.031684E-8
          2463.18     4.436563E-8
         2465.379     6.861728E-8
         2467.579     9.305371E-8
         2469.778     1.176480E-7
         2471.983     1.087447E-7
          2474.19     9.597726E-8
         2476.396     8.313265E-8
         2478.606     7.017209E-8
         2480.817     5.773579E-8
         2483.029     4.625995E-8
         2485.247     3.468073E-8
         2487.462     2.303488E-8
         2489.682     1.128625E-8
         2491.904     1.005215E-8
         2494.125     1.058545E-8
         2496.353     1.112357E-8
         2498.579     1.166487E-8
         2500.808     1.268139E-8
          2503.04     1.453840E-8
         2505.272     1.640779E-8
         2507.509     1.829227E-8
         2509.745     2.018901E-8
         2511.985     2.492993E-8
         2514.225     3.006757E-8
         2516.468     3.524352E-8
         2518.714     4.046016E-8
         2520.962     4.073843E-8
          2523.21     3.434003E-8
         2525.462     2.788924E-8
         2527.715     2.139429E-8
         2529.971     1.484657E-8
         2532.229     1.538271E-8
         2534.486     1.601595E-8
         2536.748     1.665435E-8
          2539.01     1.726900E-8
         2541.277     1.823226E-8
         2543.545     1.947041E-8
         2545.813     2.071232E-8
         2548.084     2.195863E-8
         2550.358     2.337984E-8
         2552.635     2.571717E-8
         2554.911     2.806121E-8
         2557.191     3.041545E-8
         2559.471     3.277529E-8
         2561.755     4.243951E-8
         2564.042     5.434415E-8
         2566.329     6.628615E-8
         2568.619     7.827801E-8
         2570.908     8.361911E-8
         2573.205     7.879027E-8
           2575.5     7.394910E-8
         2577.797     6.908795E-8
         2580.097     6.391436E-8
         2582.399     5.213046E-8
         2584.704     4.029274E-8
          2587.01     2.841142E-8
         2589.318     1.649050E-8
         2591.629     1.345040E-8
          2593.94     1.414793E-8
         2596.254     1.484782E-8
         2598.573     1.555111E-8
         2600.889     1.579492E-8
          2603.21     1.529735E-8
         2605.532     1.479801E-8
         2607.856     1.429654E-8
         2610.185     1.449337E-8
         2612.512     2.282833E-8
         2614.843     3.120459E-8
         2617.177     3.961326E-8
          2619.51     4.804361E-8
         2621.849     4.520766E-8
         2624.188     3.936152E-8
         2626.528     3.349244E-8
         2628.873     2.759623E-8
         2631.217     2.424487E-8
         2633.566     2.325982E-8
         2635.916     2.227065E-8
         2638.267     2.127790E-8
          2640.62     1.996284E-8
         2642.977     1.775037E-8
         2645.334     1.553027E-8
         2647.695     1.330008E-8
         2650.057     1.115800E-8
         2652.422     1.289252E-8
         2654.788     1.463249E-8
         2657.157     1.638020E-8
         2659.526     1.813238E-8
         2661.899     3.675404E-8
         2664.275     5.966797E-8
         2666.652     8.265715E-8
         2669.031     1.057471E-7
         2671.412     1.005696E-7
         2673.796     7.586946E-8
         2676.181     5.108939E-8
          2678.57     2.619697E-8
          2680.96     2.216449E-8
          2683.35     4.937760E-8
         2685.746     7.674368E-8
          2688.14     1.041646E-7
          2690.54     1.238520E-7
         2692.941     1.164199E-7
         2695.343     1.089612E-7
         2697.748     1.014684E-7
         2700.153     9.353420E-8
         2702.563     7.932508E-8
         2704.975     6.501657E-8
         2707.387     5.061576E-8
         2709.804     3.610346E-8
         2712.222     3.322408E-8
         2714.642     3.136423E-8
         2717.063     2.949107E-8
         2719.486     2.760419E-8
         2721.915     2.793261E-8
         2724.343     2.886253E-8
         2726.772     2.979838E-8
         2729.205     3.074016E-8
          2731.64     3.238947E-8
         2734.078     3.439083E-8
         2736.517     3.640417E-8
         2738.958     3.843054E-8
         2741.402     3.614001E-8
         2743.849     3.060125E-8
         2746.296     2.502773E-8
         2748.747     1.941216E-8
         2751.198     1.945304E-8
         2753.653     2.545291E-8
         2756.111     3.146580E-8
         2758.569     3.748816E-8
         2761.031     3.830614E-8
         2763.495     3.186730E-8
         2765.958     2.542226E-8
         2768.427     1.895566E-8
         2770.898     1.524373E-8
         2773.369     1.638137E-8
         2775.844     1.752209E-8
          2778.32     1.866457E-8
         2780.799     2.015339E-8
          2783.28     2.237064E-8
         2785.764     2.459275E-8
         2788.249     2.681795E-8
         2790.736     2.888451E-8
         2793.227     3.056682E-8
          2795.72     3.225255E-8
         2798.213     3.394073E-8
         2800.709     3.947319E-8
         2803.209     5.471524E-8
         2805.709     6.997895E-8
         2808.213     8.528381E-8
         2810.718     9.052999E-8
         2813.226     7.064662E-8
         2815.736     5.073582E-8
         2818.247     3.078594E-8
         2820.764     2.115640E-8
         2823.278     3.534453E-8
         2825.798     4.957771E-8
          2828.32     6.383808E-8
         2830.843     7.576094E-8
         2833.369     8.300688E-8
         2835.898     9.026713E-8
         2838.426     9.753186E-8
         2840.959     9.347371E-8
         2843.495     7.076451E-8
         2846.031     4.802697E-8
         2848.571     2.523039E-8
         2851.112     1.569005E-8
         2853.655     2.322873E-8
         2856.202     3.078530E-8
         2858.751     3.835547E-8
         2861.301     3.822104E-8
         2863.853     3.066693E-8
         2866.407     2.309878E-8
         2868.965     1.551220E-8
         2871.526     1.471413E-8
         2874.087     1.853021E-8
         2876.652     2.235574E-8
         2879.218     2.618526E-8
         2881.788     2.494619E-8
         2884.358     2.148242E-8
         2886.931     1.801243E-8
         2889.507     1.453457E-8
         2892.084     1.638652E-8
         2894.666     1.950620E-8
         2897.248     2.262956E-8
         2899.832     2.575777E-8
         2902.421     2.267352E-8
          2905.01     1.916740E-8
         2907.601     1.566756E-8
         2910.198     1.248107E-8
          2912.79     1.307325E-8
         2915.392     1.366567E-8
         2917.992     1.425611E-8
         2920.594     1.487198E-8
         2923.203     1.557755E-8
         2925.807     1.627993E-8
          2928.42     1.698246E-8
         2931.033     1.865330E-8
         2933.646     2.180006E-8
         2936.266     2.494582E-8
         2938.885     2.808086E-8
         2941.506     3.158468E-8
         2944.131     3.536096E-8
         2946.757     3.912669E-8
         2949.387     4.288636E-8
         2952.018     3.759016E-8
         2954.653     2.955648E-8
          2957.29     2.154012E-8
         2959.926     1.355080E-8
         2962.567     2.912651E-8
          2965.21     4.533915E-8
         2967.856     6.152294E-8
         2970.505     7.227172E-8
         2973.155     6.010257E-8
         2975.808     4.795295E-8
         2978.461     3.584644E-8
         2981.121     2.811593E-8
          2983.78     2.640473E-8
         2986.441     2.469737E-8
         2989.104     2.299402E-8
         2991.772     2.643037E-8
         2994.442     3.245069E-8
         2997.113     3.845300E-8
         2999.788     4.444432E-8
         3002.464     3.801786E-8
         3005.142     3.054262E-8
         3007.826     2.307614E-8
         3010.507     1.732132E-8
         3013.194     1.877976E-8
         3015.883     2.023440E-8
         3018.573     2.168427E-8
         3021.267     2.226946E-8
          3023.96     2.188340E-8
          3026.66     2.149747E-8
          3029.36     2.111283E-8
         3032.062     3.601036E-8
          3034.77     5.563103E-8
         3037.475     7.516388E-8
         3040.186     9.181952E-8
         3042.897     6.983515E-8
         3045.612     4.790752E-8
         3048.332     2.601143E-8
         3051.051     1.319542E-8
         3053.772     1.468394E-8
         3056.497     1.616926E-8
         3059.222     1.764833E-8
         3061.954     3.655608E-8
         3064.685     6.231236E-8
         3067.418     8.799763E-8
         3070.156     1.111722E-7
         3072.896     9.376642E-8
         3075.637     7.641903E-8
          3078.38     5.912252E-8
         3081.126     4.886900E-8
         3083.877     4.869772E-8
         3086.628     4.852669E-8
         3089.381     4.835573E-8
         3092.137     6.283425E-8
         3094.895     8.150758E-8
         3097.659     1.001470E-7
         3100.422     1.114823E-7
         3103.187     8.259947E-8
         3105.955     5.360861E-8
         3108.729     2.447347E-8
         3111.501     1.839516E-8
         3114.277     3.193044E-8
         3117.056     4.552449E-8
         3119.836     5.915951E-8
         3122.621     6.129343E-8
         3125.406     6.270998E-8
         3128.195     6.413237E-8
         3130.985     5.985347E-8
         3133.778     4.508354E-8
         3136.575     3.024956E-8
         3139.373     1.536950E-8
         3142.175     1.187308E-8
         3144.979     1.167478E-8
         3147.784     1.147581E-8
         3150.592     1.146370E-8
         3153.405     1.215696E-8
         3156.218     1.285185E-8
         3159.035     1.354976E-8
         3161.851     1.375093E-8
         3164.674     1.369211E-8
         3167.497     1.363308E-8
         3170.322     1.524509E-8
         3173.152     2.988183E-8
         3175.982     4.456496E-8
         3178.816     5.931111E-8
         3181.652     5.690556E-8
          3184.49     4.214086E-8
         3187.333     2.730078E-8
         3190.175     1.367888E-8
         3193.022     1.907905E-8
          3195.87     2.449635E-8
         3198.722     2.993687E-8
         3201.577     7.364401E-8
         3204.433     1.485376E-7
         3207.291     2.237076E-7
         3210.151     2.908980E-7
         3213.018     2.101046E-7
         3215.884     1.291134E-7
         3218.752     4.781373E-8
         3221.623     1.368792E-8
         3224.499     1.600732E-8
         3227.376     1.833544E-8
         3230.255     2.043129E-8
         3233.136     2.006697E-8
          3236.02     1.970121E-8
         3238.908     1.933379E-8
         3241.799     3.740647E-8
          3244.69     6.674764E-8
         3247.584     9.620282E-8
         3250.485     1.163487E-7
         3253.384     8.937320E-8
         3256.286     6.229518E-8
         3259.192     3.509831E-8
         3262.097     4.746465E-8
          3265.01     7.523973E-8
         3267.922     1.030826E-7
         3270.837     1.144624E-7
         3273.758     8.463164E-8
         3276.675     5.476429E-8
         3279.601     2.470762E-8
         3282.526     1.847002E-8
         3285.454     1.599327E-8
         3288.388     1.350417E-8
         3291.319     1.214142E-8
         3294.257     1.215903E-8
         3297.195     1.217666E-8
         3300.137     1.225417E-8
         3303.083     1.355623E-8
         3306.029     1.486246E-8
         3308.979     1.617429E-8
         3311.931     5.023647E-8
         3314.885     1.017765E-7
         3317.844     1.535432E-7
         3320.803     1.809766E-7
         3323.767     1.425393E-7
         3326.731     1.039766E-7
           3329.7     6.524051E-8
          3332.67     5.663578E-8
         3335.643     5.139923E-8
         3338.622     4.613631E-8
         3341.599     4.198575E-8
          3344.58     3.879180E-8
         3347.563     3.558566E-8
         3350.551     3.352630E-8
         3353.541     3.660795E-8
         3356.532     3.969959E-8
         3359.528     4.280481E-8
         3362.524     5.472387E-8
         3365.525     6.834711E-8
         3368.527     8.201499E-8
         3371.532     8.179001E-8
         3374.541     6.811650E-8
         3377.551     5.439744E-8
         3380.565     4.771556E-8
         3383.582     7.184232E-8
         3386.598     9.603332E-8
         3389.623     1.203633E-7
         3392.646     1.511130E-7
         3395.672     1.828934E-7
         3398.705     2.148361E-7
         3401.732     1.935909E-7
          3404.77     1.322120E-7
         3407.807     7.066612E-8
         3410.847     2.561830E-8
         3413.893     2.385043E-8
         3416.938     2.207767E-8
         3419.985     2.029772E-8
         3423.038     8.803515E-8
         3426.089     1.562940E-7
         3429.148     2.249481E-7
         3432.207     2.018108E-7
         3435.268     1.430051E-7
         3438.334     8.392740E-8
         3441.401     4.871513E-8
         3444.473     4.204132E-8
         3447.545     3.534557E-8
         3450.622     4.134513E-8
         3453.701     9.776863E-8
         3456.782     1.543776E-7
         3459.865     2.112175E-7
         3462.951     1.802893E-7
         3466.042     1.451813E-7
         3469.135     1.099316E-7
         3472.229     9.540126E-8
         3475.326     8.891818E-8
         3478.426     8.240855E-8
         3481.532     6.930740E-8
         3484.638     4.942419E-8
         3487.746     2.946143E-8
         3490.859     1.645999E-8
         3493.972     2.197426E-8
         3497.091     2.751399E-8
          3500.21     3.300562E-8
         3503.334     3.757770E-8
          3506.46     4.216879E-8
         3509.586     4.677317E-8
          3512.72     7.206464E-8
         3515.852     1.005624E-7
         3518.989     1.292110E-7
          3522.13     1.305326E-7
         3525.271     1.188078E-7
         3528.418     1.070267E-7
         3531.563     1.083219E-7
         3534.717     1.229567E-7
          3537.87     1.376354E-7
         3541.025     1.344116E-7
         3544.188     9.369659E-8
         3547.349     5.286144E-8
         3550.513     1.905856E-8
         3553.679     2.247486E-8
         3556.849     2.590571E-8
         3560.026     2.933477E-8
         3563.201     3.023494E-8
         3566.379     3.113878E-8
         3569.562     3.204702E-8
         3572.746     2.855329E-8
         3575.935     2.433727E-8
         3579.124     2.010587E-8
         3582.316     1.843580E-8
         3585.513     1.773613E-8
         3588.714     1.703330E-8
         3591.915     1.962625E-8
         3595.118     2.445205E-8
         3598.325     2.929909E-8
         3601.538     2.920129E-8
         3604.751     2.368212E-8
         3607.966     1.813914E-8
         3611.184     2.287360E-8
         3614.409     4.540565E-8
         3617.633     6.800661E-8
         3620.859     8.532299E-8
         3624.089     8.785327E-8
         3627.322     9.039409E-8
         3630.561     9.433178E-8
         3633.799     1.048966E-7
          3637.04     1.155073E-7
         3640.286     1.273323E-7
         3643.533     1.512540E-7
         3646.785     1.752928E-7
         3650.038     1.984525E-7
         3653.295     1.385760E-7
         3656.556     7.842981E-8
         3659.815     1.809909E-8
         3663.082     1.842556E-8
         3666.353     2.242402E-8
         3669.621     2.643285E-8
         3672.896     2.399337E-8
         3676.172     2.069589E-8
         3679.451     1.738398E-8
         3682.737     1.907684E-8
         3686.022     2.178445E-8
         3689.309     2.450373E-8
           3692.6     2.295281E-8
         3695.896     2.025296E-8
         3699.194     1.754086E-8
         3702.494     1.919339E-8
         3705.798     2.227270E-8
         3709.101     2.536166E-8
         3712.412     6.070891E-8
         3715.725     1.082624E-7
         3719.039     1.559946E-7
         3722.358     1.485102E-7
         3725.678     1.183599E-7
         3729.004     8.805537E-8
          3732.33     6.818239E-8
         3735.659     5.274231E-8
         3738.995     3.721419E-8
          3742.33     3.889627E-8
         3745.668     4.805160E-8
         3749.009     5.724728E-8
         3752.354     6.485520E-8
         3755.703     7.180653E-8
         3759.053     7.878427E-8
         3762.408     6.530812E-8
         3765.764     4.370823E-8
         3769.125     2.200015E-8
         3772.487     1.717573E-8
         3775.852     1.831565E-8
         3779.222     1.946137E-8
         3782.594     1.869190E-8
         3785.968     1.734220E-8
         3789.345     1.598637E-8
         3792.725     2.613685E-8
         3796.112     3.912120E-8
         3799.498     5.214739E-8
         3802.887     5.237912E-8
         3806.279     5.037122E-8
         3809.676     4.835280E-8
         3813.076     3.829409E-8
         3816.477     2.734843E-8
         3819.881     1.635459E-8
          3823.29     1.599689E-8
           3826.7     1.602488E-8
         3830.116     1.605295E-8
         3833.532     1.608106E-8
         3836.951     1.610922E-8
         3840.378     1.650119E-8
         3843.803     1.983477E-8
         3847.232     2.318282E-8
         3850.663     2.640003E-8
         3854.102     2.902622E-8
          3857.54     3.166068E-8
          3860.98     3.220790E-8
         3864.426     2.747323E-8
         3867.875     2.271767E-8
         3871.325     3.103771E-8
         3874.778     6.044949E-8
         3878.234     8.998774E-8
         3881.695     9.421211E-8
         3885.157     7.187975E-8
         3888.625     4.943554E-8
         3892.094     3.553287E-8
         3895.565     2.725006E-8
         3899.044     1.892057E-8
         3902.521     1.943746E-8
         3906.002     2.332930E-8
         3909.489     2.724008E-8
         3912.975     2.822193E-8
         3916.468     2.870100E-8
         3919.961     2.918168E-8
         3923.457     3.594317E-8
         3926.961     4.281313E-8
         3930.462     4.882099E-8
         3933.969     4.905846E-8
         3937.478     4.929660E-8
         3940.992     4.626253E-8
          3944.51     3.487718E-8
         3948.028     2.345086E-8
          3951.55     1.704249E-8
         3955.074     1.707059E-8
         3958.606     1.709878E-8
         3962.137     2.293607E-8
         3965.671     3.259597E-8
          3969.21     4.230190E-8
          3972.75     6.430265E-8
         3976.296     8.993980E-8
         3979.843     1.156670E-7
         3983.395     8.824512E-8
          3986.95     5.823674E-8
         3990.504     3.166262E-8
         3994.065     2.633651E-8
          3997.63     2.098829E-8
         4001.196     1.872954E-8
         4004.767     2.263148E-8
         4008.339     2.653320E-8
         4011.914     2.625267E-8
         4015.494     2.233456E-8
         4019.078     1.841437E-8
         4022.663     2.207896E-8
         4026.251     2.837328E-8
         4029.844     3.467406E-8
         4033.441     2.890219E-8
         4037.039     2.258451E-8
         4040.639     1.820212E-8
         4044.243     2.280198E-8
         4047.855     2.740965E-8
         4051.465     4.049888E-8
         4055.079     6.602425E-8
         4058.698     9.157469E-8
         4062.316     8.304117E-8
         4065.944     5.529850E-8
          4069.57     2.757996E-8
           4073.2     3.616143E-8
         4076.838     4.964007E-8
         4080.472     5.927243E-8
         4084.114     4.323134E-8
         4087.756     2.719452E-8
         4091.405     1.877949E-8
         4095.056     2.256692E-8
         4098.708     2.635276E-8
         4102.367     2.652315E-8
         4106.026     2.471865E-8
         4109.688     2.291390E-8
         4113.356     2.512714E-8
         4117.025     2.771313E-8
         4120.699     2.893039E-8
         4124.375     2.431541E-8
         4128.056     1.969648E-8
         4131.738     1.725514E-8
         4135.423     1.724867E-8
         4139.116     1.724218E-8
         4142.808     1.723564E-8
         4146.503     1.722908E-8
         4150.201     1.722248E-8
         4153.903     1.721545E-8
         4157.613     1.720839E-8
         4161.321     1.977240E-8
         4165.033     2.698328E-8
         4168.748     3.419480E-8
         4172.466     4.180040E-8
         4176.192     4.961561E-8
         4179.917     5.742198E-8
         4183.645     6.132923E-8
         4187.379     6.515027E-8
         4191.116     6.552124E-8
         4194.854     5.779177E-8
         4198.596     5.006217E-8
         4202.343     4.401535E-8
         4206.094     3.896830E-8
         4209.845     3.391066E-8
         4213.603     3.233564E-8
         4217.358     3.090877E-8
         4221.123     3.458930E-8
          4224.89     5.033183E-8
         4228.658     6.610881E-8
         4232.432     5.851563E-8
         4236.208     3.796784E-8
         4239.988     1.735373E-8
          4243.77     1.730505E-8
         4247.555     1.732039E-8
         4251.348     1.733576E-8
          4255.14     1.735111E-8
         4258.936     1.736648E-8
         4262.734     1.738170E-8
         4266.537     1.739685E-8
         4270.347     1.741205E-8
         4274.155     1.742723E-8
         4277.968     1.744243E-8
         4281.786     1.745754E-8
         4285.605     1.747253E-8
          4289.43     1.748755E-8
         4293.256     1.750255E-8
         4297.085     1.751755E-8
         4300.922     1.753254E-8
         4304.759     1.754736E-8
         4308.598     1.756220E-8
         4312.441     1.757704E-8
          4316.29     1.759189E-8
         4320.142     1.760676E-8
         4323.996     1.762161E-8
         4327.854     1.763649E-8
         4331.715     1.765136E-8
         4335.581     1.766624E-8
         4339.448     1.768113E-8
         4343.318     1.769583E-8
         4347.195     1.771053E-8
         4351.072     1.772517E-8
         4354.956     1.773968E-8
          4358.84     1.775419E-8
         4362.728     1.776884E-8
         4366.624     1.778359E-8
         4370.519     1.779829E-8
         4374.417     1.781282E-8
         4378.318     1.782736E-8
         4382.229     4.921316E-8
         4386.137     1.043216E-7
         4390.049     1.622032E-7
         4393.967     4.271407E-7
         4397.889     6.927683E-7
         4401.812     1.013881E-6
         4405.738     1.400068E-6
         4409.667     1.787219E-6
         4413.603     1.946780E-6
         4417.542     2.085583E-6
         4421.482     2.266147E-6
         4425.426     2.516062E-6
         4429.373     2.766560E-6
         4433.329     2.709179E-6
         4437.283     2.593518E-6
         4441.241     2.424307E-6
         4445.205     2.137612E-6
         4449.169     1.850383E-6
          4453.14     1.568543E-6
         4457.112     1.287813E-6
         4461.088     1.004226E-6
         4465.069     7.139969E-7
         4469.052     4.232379E-7
         4473.041     2.727702E-7
          4477.03     1.661140E-7
         4481.028     8.109624E-8
         4485.022     5.963424E-8
         4489.025     3.809104E-8
         4493.032     3.152902E-8
         4497.039     2.979284E-8
         4501.053     2.745955E-8
         4505.067     2.343932E-8
         4509.086     1.938183E-8
         4513.107     1.898624E-8
         4517.136     1.968027E-8
         4521.167     2.002033E-8
           4525.2     1.947660E-8
         4529.238     1.892714E-8
         4533.281     1.888336E-8
         4537.324     1.895785E-8
         4541.371     1.903240E-8
         4545.422     1.910704E-8
         4549.479     1.918180E-8
         4553.539     1.925683E-8
           4557.6     1.933193E-8
         4561.668     1.940708E-8
         4565.734     1.948207E-8
         4569.809     1.955724E-8
         4573.887     3.031711E-8
         4577.967     4.169115E-8
         4582.053     4.904378E-8
         4586.142     5.235649E-8
         4590.233     5.555854E-8
         4594.327     5.652836E-8
         4598.425     5.750479E-8
         4602.529     4.844332E-8
         4606.637     3.301669E-8
         4610.746     2.157133E-8
          4614.86     2.862217E-8
         4618.979     3.573267E-8
         4623.097     3.491919E-8
         4627.223     3.145426E-8
          4631.35     2.800805E-8
         4635.483     2.462509E-8
         4639.621     2.121365E-8
         4643.759     2.470747E-8
           4647.9     2.893203E-8
         4652.046     2.991904E-8
         4656.198     2.753948E-8
         4660.354     2.562787E-8
         4664.511     2.896999E-8
         4668.673     3.233990E-8
          4672.84     3.666251E-8
         4677.005     4.144705E-8
          4681.18     4.303390E-8
         4685.355     3.637063E-8
         4689.537     2.964851E-8
         4693.722     3.578142E-8
         4697.909     4.357172E-8
         4702.102     4.410345E-8
         4706.293     3.732557E-8
         4710.493     3.085216E-8
         4714.697     2.710228E-8
         4718.902     2.332455E-8
         4723.114     2.239181E-8
          4727.33     2.247008E-8
         4731.543     2.254822E-8
         4735.766     2.262637E-8
          4739.99     2.270456E-8
         4744.221     3.055024E-8
         4748.455     3.847399E-8
          4752.69     3.648541E-8
         4756.932     2.872386E-8
         4761.172     2.309755E-8
         4765.421     2.317656E-8
         4769.674     2.325566E-8
         4773.929     2.333481E-8
         4778.189     2.341408E-8
         4782.454     2.349327E-8
         4786.719     2.357237E-8
         4790.989     2.474029E-8
         4795.262     2.954461E-8
         4799.542     3.438783E-8
         4803.826     3.075759E-8
          4808.11     2.607911E-8
         4812.401     2.405024E-8
         4816.696     2.412997E-8
         4820.993     2.420981E-8
         4825.292     2.428995E-8
         4829.597     2.437021E-8
         4833.907     2.445057E-8
         4838.221     2.453104E-8
         4842.537     2.461154E-8
         4846.855     2.469213E-8
         4851.179     2.555674E-8
         4855.508     2.852893E-8
         4859.842     3.152256E-8
         4864.177     3.437783E-8
         4868.518     3.724915E-8
         4872.863     3.455364E-8
         4877.209     2.893669E-8
          4881.56     2.533935E-8
         4885.914     2.542071E-8
         4890.277     2.550226E-8
         4894.639     2.558379E-8
         4899.004     2.566540E-8
         4903.376     2.603885E-8
         4907.748     2.650035E-8
          4912.13     2.659524E-8
         4916.512     2.629760E-8
         4920.897     2.626579E-8
         4925.289     2.728225E-8
         4929.685     2.830563E-8
         4934.082     2.758868E-8
         4938.482     2.673056E-8
         4942.887     2.648759E-8
         4947.301     2.657063E-8
         4951.714     2.683568E-8
         4956.131     2.738996E-8
         4960.554     2.846027E-8
         4964.976     3.312682E-8
          4969.41     3.783461E-8
         4973.842     3.414906E-8
         4978.278     2.913853E-8
         4982.724     3.225352E-8
         4987.168     4.056264E-8
         4991.617     4.531032E-8
         4996.069     4.372673E-8
         5000.528     4.155912E-8
         5004.991     3.510052E-8
         5009.455     2.859067E-8
         5013.923     2.788314E-8
         5018.398     2.798630E-8
         5022.874     2.808975E-8
         5027.357     2.819351E-8
         5031.841     2.829718E-8
         5036.329     2.840074E-8
         5040.827     2.850462E-8
         5045.323     2.860878E-8
         5049.823     2.871307E-8
         5054.327     2.881708E-8
         5058.838     2.892125E-8
         5063.353     2.902585E-8
         5067.869     2.913060E-8
          5072.39     2.923547E-8
         5076.919     2.934058E-8
         5081.448     2.944555E-8
          5085.98     2.955034E-8
         5090.516     2.965530E-8
          5095.06     2.976081E-8
         5099.607     2.986645E-8
         5104.155     3.194543E-8
         5108.708     3.422787E-8
         5113.265     4.003663E-8
         5117.828     4.728984E-8
         5122.396     4.595122E-8
         5126.965     3.673298E-8
         5131.538     3.117132E-8
          5136.12     3.296210E-8
         5140.701     3.424735E-8
         5145.287     3.267060E-8
         5149.876     3.108082E-8
         5154.472     3.114187E-8
         5159.072     3.124905E-8
         5163.674     3.135627E-8
         5168.283     3.146368E-8
         5172.895     3.157121E-8
         5177.506     3.167875E-8
         5182.127     3.182694E-8
         5186.749     3.202303E-8
         5191.378     3.257593E-8
         5196.012     3.397516E-8
         5200.646     3.501014E-8
         5205.285     3.373790E-8
         5209.928     3.245519E-8
         5214.577     3.254206E-8
         5219.231     3.265079E-8
         5223.887     3.607321E-8
         5228.549     4.018104E-8
         5233.215     3.879967E-8
          5237.88     3.491068E-8
         5242.555     3.327967E-8
         5247.231     3.354647E-8
         5251.914     3.368547E-8
         5256.601     3.363706E-8
          5261.29     3.363126E-8
         5265.985     3.374023E-8
          5270.68     3.600224E-8
         5275.383     5.106643E-8
         5280.092     6.569221E-8
         5284.801     5.261771E-8
         5289.518     3.943730E-8
         5294.239     3.658581E-8
         5298.958     3.490500E-8
         5303.687     3.461805E-8
         5308.418     3.472803E-8
         5313.155     4.287605E-8
         5317.897     5.513074E-8
         5322.641     5.392528E-8
         5327.391     4.187841E-8
          5332.14     3.527976E-8
         5336.899     3.539050E-8
         5341.662     3.608714E-8
         5346.426     3.788487E-8
         5351.198     3.887283E-8
         5355.974     3.740205E-8
         5360.751     4.072298E-8
         5365.532     6.991282E-8
         5370.318     9.716917E-8
         5375.111     9.443102E-8
         5379.908     9.167211E-8
         5384.707     7.503979E-8
         5389.513     5.800905E-8
         5394.323     4.969249E-8
         5399.131     4.232577E-8
          5403.95     3.945339E-8
          5408.77     3.756692E-8
         5413.597     5.034172E-8
         5418.429     6.824207E-8
         5423.262     6.221729E-8
         5428.099     4.452559E-8
          5432.94     3.761215E-8
         5437.792     3.772372E-8
         5442.643     3.783525E-8
         5447.497     3.794688E-8
         5452.359     4.841013E-8
         5457.225     6.996905E-8
         5462.092     7.318636E-8
         5466.964     5.183124E-8
          5471.84     4.240111E-8
         5476.724     5.289531E-8
         5481.612     5.659190E-8
         5486.501     4.631051E-8
         5491.398     4.353149E-8
         5496.293     5.974688E-8
         5501.198     7.317227E-8
         5506.108     7.762898E-8
         5511.019     7.834286E-8
         5515.938     6.461483E-8
          5520.86     5.574920E-8
         5525.785     7.026686E-8
         5530.713     7.971838E-8
         5535.646     5.866267E-8
         5540.587     4.000137E-8
         5545.532     4.010446E-8
         5550.478     4.027869E-8
         5555.432     4.112157E-8
         5560.387     4.185253E-8
         5565.347     4.121580E-8
         5570.313     4.190123E-8
         5575.282     6.234522E-8
         5580.258     8.354368E-8
         5585.238     1.163113E-7
          5590.22     1.454626E-7
         5595.206     9.245195E-8
         5600.197     4.123744E-8
         5605.198     4.129859E-8
         5610.197     4.135969E-8
         5615.201     4.142080E-8
         5620.213     4.149622E-8
         5625.226     4.189266E-8
         5630.246     4.365026E-8
         5635.268     7.183657E-8
         5640.294     9.717653E-8
         5645.328     7.503395E-8
         5650.367     5.517620E-8
         5655.406     6.551490E-8
         5660.451     7.452469E-8
         5665.502     6.958307E-8
         5670.559     6.389040E-8
         5675.617     5.228485E-8
         5680.679     4.220773E-8
         5685.752     4.226779E-8
         5690.823     4.235313E-8
         5695.899     4.256965E-8
         5700.979     4.272625E-8
         5706.064     4.262941E-8
          5711.16     4.398439E-8
         5716.254     5.027538E-8
         5721.353     5.327580E-8
         5726.456     4.709335E-8
         5731.567     4.315359E-8
         5736.682     4.434449E-8
         5741.799     4.474247E-8
          5746.92     4.366941E-8
         5752.053     4.723007E-8
         5757.183     5.776601E-8
         5762.318     9.173679E-8
         5767.458     1.543346E-7
         5772.602     1.530246E-7
         5777.757     8.881876E-8
         5782.911     5.658482E-8
         5788.068     4.904139E-8
         5793.237     4.536801E-8
         5798.401     4.402041E-8
         5803.577     7.339757E-8
         5808.753     1.166181E-7
         5813.937     1.454933E-7
         5819.126     1.698608E-7
         5824.316     1.179322E-7
         5829.511     5.031900E-8
         5834.711     9.912116E-8
         5839.918     1.602665E-7
          5845.13     1.057685E-7
         5850.344     5.308262E-8
         5855.562     5.445320E-8
         5860.792     5.515498E-8
         5866.016     5.207074E-8
         5871.251     4.906438E-8
         5876.488     4.634590E-8
         5881.732     4.846694E-8
         5886.982     6.045261E-8
         5892.232     7.461323E-8
         5897.491     9.173656E-8
         5902.749     8.481543E-8
         5908.017     5.580270E-8
          5913.29     4.489712E-8
         5918.563     4.495748E-8
         5923.846     6.012318E-8
         5929.133     8.099804E-8
         5934.421     6.710815E-8
         5939.714     4.632390E-8
         5945.012     4.525764E-8
         5950.318     4.534028E-8
         5955.629     4.577397E-8
         5960.941     4.607634E-8
         5966.258     4.576318E-8
         5971.579     5.604437E-8
         5976.909     9.155073E-8
         5982.243     1.016962E-7
         5987.579     7.669325E-8
         5992.923     7.879687E-8
         5998.271     1.035015E-7
         6003.622     8.774938E-8
         6008.976     5.262164E-8
         6014.336     7.717589E-8
         6019.704     1.159082E-7
         6025.076     1.309353E-7
          6030.45     1.427241E-7
         6035.832     1.341390E-7
         6041.219     1.301531E-7
         6046.604     1.419305E-7
         6052.001     1.401913E-7
         6057.399     1.154506E-7
         6062.805     1.108563E-7
         6068.216     1.250032E-7
         6073.628     1.349003E-7
         6079.046     1.427133E-7
         6084.468     1.043886E-7
         6089.898     5.610912E-8
         6095.333     1.436045E-7
          6100.77     2.248414E-7
         6106.215     2.521280E-7
         6111.665     2.423576E-7
         6117.112     1.482426E-7
         6122.572     1.107689E-7
         6128.033     1.371778E-7
         6133.502     2.051524E-7
         6138.976     2.965677E-7
         6144.452     2.853885E-7
         6149.936     2.505306E-7
         6155.417     2.314174E-7
         6160.911     2.115096E-7
          6166.41     1.868804E-7
          6171.91     1.692139E-7
         6177.418     1.646617E-7
         6182.932     1.903419E-7
         6188.443     2.426496E-7
         6193.966     3.160564E-7
         6199.491     3.977419E-7
         6205.024     2.838914E-7
         6210.562     1.602302E-7
         6216.101     1.268429E-7
         6221.649     1.638680E-7
         6227.195     3.675217E-7
         6232.756     4.825367E-7
         6238.315     5.066876E-7
         6243.879     4.282293E-7
         6249.452     3.049572E-7
         6255.029     4.155459E-7
         6260.608     5.409470E-7
         6266.193     5.783522E-7
         6271.782     6.037700E-7
         6277.379     6.034853E-7
         6282.982     5.618464E-7
         6288.586     4.838217E-7
         6294.198     6.535849E-7
         6299.809     9.068715E-7
         6305.435     1.069298E-6
         6311.059     1.209773E-6
         6316.688     1.269578E-6
         6322.326     1.295974E-6
         6327.968     1.274614E-6
         6333.612     1.271470E-6
         6339.262     1.278585E-6
         6344.916     1.368457E-6
         6350.579     1.482272E-6
         6356.247     1.695943E-6
         6361.916     1.862940E-6
         6367.594     1.938441E-6
         6373.277     2.016439E-6
         6378.961     2.096251E-6
         6384.651     2.120652E-6
         6390.346     2.140770E-6
         6396.049     2.286394E-6
         6401.757     2.419742E-6
         6407.467     2.525162E-6
         6413.183     2.649464E-6
         6418.906     2.788924E-6
         6424.631     2.983706E-6
         6430.365     3.197378E-6
         6436.104     3.492094E-6
         6441.845     3.726494E-6
         6447.594     3.833525E-6
         6453.345     4.041230E-6
         6459.101     4.321572E-6
         6464.866     4.605104E-6
         6470.632     4.892018E-6
         6476.407     5.202153E-6
         6482.184     5.517823E-6
         6487.969     5.842997E-6
         6493.756     6.247922E-6
         6499.548     6.696275E-6
         6505.349     7.049719E-6
         6511.154     7.434222E-6
         6516.962     7.978124E-6
         6522.778     8.548383E-6
         6528.596     9.146730E-6
         6534.419     9.836640E-6
         6540.251     1.055372E-5
         6546.088     1.124309E-5
         6551.927     1.198620E-5
         6557.771     1.284055E-5
         6563.624     1.377277E-5
         6569.478     1.475102E-5
         6575.341     1.581197E-5
         6581.206     1.687447E-5
          6587.08     1.792182E-5
         6592.955     1.924644E-5
         6598.839     2.084565E-5
         6604.729     2.221680E-5
         6610.616     2.357284E-5
         6616.516     2.531174E-5
         6622.421     2.717420E-5
         6628.328     2.921468E-5
         6634.244     3.155221E-5
         6640.165     3.400453E-5
         6646.087     3.653928E-5
         6652.015     3.922113E-5
         6657.948     4.219337E-5
         6663.891     4.545083E-5
         6669.838     4.885283E-5
         6675.787     5.295828E-5
         6681.745     5.710447E-5
         6687.701     6.130518E-5
          6693.67     6.660647E-5
         6699.644     7.258543E-5
          6705.62     7.848257E-5
         6711.604     8.498872E-5
         6717.594     9.318648E-5
         6723.586     1.015004E-4
         6729.583     1.098879E-4
         6735.585     1.211088E-4
         6741.597     1.326629E-4
         6747.613     1.445854E-4
         6753.632     1.590037E-4
          6759.66     1.750568E-4
         6765.692     1.928495E-4
         6771.723     2.123932E-4
         6777.767     2.362010E-4
         6783.813     2.616329E-4
         6789.867     2.880047E-4
         6795.927     3.228909E-4
         6801.988     3.592701E-4
         6808.055     3.984585E-4
         6814.127     4.474819E-4
         6820.209     5.012220E-4
         6826.296     5.588270E-4
         6832.385     6.268314E-4
         6838.482     7.111328E-4
         6844.586     7.975167E-4
         6850.687     8.888472E-4
         6856.801     0.001015858
         6862.917     0.001146115
         6869.042     0.001280122
         6875.173     0.001463583
         6881.305     0.001655594
         6887.446      0.00184723
         6893.586     0.001993779
         6899.738     0.002108515
         6905.896     0.002404173
         6912.056     0.002735805
         6918.225     0.003124532
         6924.399      0.00355904
         6930.572      0.00402097
         6936.757      0.00458394
         6942.944     0.005190972
         6949.141     0.005847153
         6955.343     0.006633529
         6961.546     0.007467667
          6967.76     0.008388537
         6973.971     0.009433606
         6980.195      0.01055333
         6986.424       0.0118005
         6992.656      0.01314324
         6998.897      0.01461747
         7005.143      0.01619626
         7011.392      0.01784405
         7017.645      0.01967249
         7023.904      0.02157982
         7030.173      0.02353769
         7036.448      0.02569885
         7042.724       0.0278944
         7049.009      0.03014119
         7055.292      0.03253078
         7061.589      0.03494209
         7067.892      0.03734618
         7074.196      0.03992112
          7080.51      0.04256427
         7086.829      0.04505157
          7093.15      0.04763507
         7099.477      0.05031657
         7105.809       0.0527803
         7112.151      0.05527834
         7118.498      0.05788834
         7124.848      0.06028561
         7131.207      0.06262312
         7137.571      0.06500366
         7143.933      0.06719957
         7150.309      0.06928731
         7156.687      0.07147041
         7163.074       0.0734875
         7169.467      0.07532587
         7175.862      0.07720884
         7182.262      0.07896701
         7188.668      0.08049777
         7195.084      0.08206276
         7201.506      0.08356023
         7207.929      0.08482167
         7214.362      0.08611128
         7220.801      0.08737867
         7227.237      0.08842014
         7233.688      0.08946358
         7240.144      0.09049974
         7246.601      0.09126703
         7253.069      0.09208135
         7259.538      0.09294669
         7266.017      0.09363206
         7272.498      0.09429118
         7278.989      0.09493393
         7285.481      0.09540625
         7291.979      0.09585799
         7298.487      0.09633761
         7305.001      0.09671475
         7311.517      0.09706237
         7318.038      0.09741943
         7324.569      0.09769768
         7331.103      0.09793959
         7337.646      0.09817494
          7344.19        0.098331
         7350.745      0.09844922
         7357.301      0.09862137
         7363.867      0.09874313
         7370.436      0.09882502
         7377.014      0.09884486
         7383.593      0.09884544
         7390.183      0.09883084
         7396.775      0.09884878
         7403.372      0.09879579
         7409.979      0.09867539
         7416.589      0.09861417
         7423.208      0.09853975
         7429.829      0.09845141
          7436.46      0.09826458
         7443.097      0.09807712
         7449.736        0.097892
         7456.381      0.09774116
         7463.036      0.09756339
         7469.692      0.09735235
         7476.359       0.0970706
         7483.027      0.09681327
         7489.702      0.09658893
         7496.386      0.09636004
         7503.077       0.0961131
         7509.769      0.09584547
         7516.471      0.09558422
         7523.175       0.0952732
          7529.89      0.09490658
         7536.606      0.09460565
         7543.328      0.09431896
         7550.061      0.09404501
         7556.794      0.09373259
         7563.539      0.09338934
          7570.29      0.09301893
         7577.042      0.09265573
           7583.8      0.09229675
         7590.568      0.09193934
         7597.339      0.09156504
         7604.119      0.09124192
         7610.906      0.09094839
         7617.694      0.09063313
         7624.489      0.09025925
          7631.29      0.08986552
           7638.1      0.08951358
         7644.917      0.08921699
         7651.736      0.08892103
         7658.565      0.08856412
         7665.396      0.08818825
         7672.233      0.08782421
         7679.081      0.08749423
          7685.93      0.08719195
          7692.79      0.08688385
         7699.655       0.0865614
         7706.523      0.08625136
         7713.401      0.08594211
         7720.276      0.08563461
         7727.167      0.08535071
         7734.063      0.08506335
         7740.961      0.08477047
          7747.87      0.08445694
         7754.785      0.08417736
         7761.697      0.08391917
         7768.625      0.08367904
         7775.554      0.08342452
         7782.494      0.08315772
         7789.439      0.08287574
         7796.387      0.08262167
         7803.345      0.08236419
         7810.301       0.0821043
         7817.271      0.08191788
         7824.249      0.08168082
         7831.227      0.08141997
         7838.216      0.08119781
         7845.212      0.08098001
         7852.209      0.08078025
         7859.213      0.08061608
         7866.223      0.08036391
         7873.244      0.08011667
         7880.271      0.07989056
         7887.299       0.0797256
         7894.338      0.07951047
         7901.375      0.07926917
         7908.427      0.07904612
         7915.485      0.07883631
         7922.545      0.07862615
         7929.616      0.07840844
         7936.693      0.07816411
         7943.772      0.07796344
         7950.858      0.07779713
          7957.95      0.07759611
         7965.052       0.0773591
         7972.161      0.07711099
         7979.271      0.07687091
         7986.393      0.07667565
         7993.521      0.07646345
         8000.646      0.07621787
         8007.786      0.07585928
         8014.929      0.07551222
         8022.082      0.07515731
         8029.242      0.07477182
         8036.403      0.07439653
         8043.576      0.07399305
         8050.746      0.07357174
         8057.931      0.07324088
         8065.123      0.07282341
         8072.316      0.07240935
         8079.521      0.07207361
         8086.731      0.07163098
          8093.94       0.0712247
         8101.164       0.0708386
         8108.389      0.07037586
         8115.626       0.0699418
         8122.869      0.06952064
         8130.114      0.06910578
          8137.37      0.06864205
         8144.628      0.06822127
         8151.893      0.06780662
         8159.168      0.06734122
         8166.446      0.06692985
         8173.734      0.06649055
         8181.029      0.06601357
         8188.326      0.06550512
          8195.63       0.0651026
         8202.939       0.0646969
         8210.261       0.0642413
         8217.588      0.06381463
         8224.918      0.06337651
         8232.259       0.0629259
         8239.602      0.06246075
          8246.95      0.06204113
         8254.311      0.06161657
         8261.673      0.06118975
         8269.047      0.06077083
         8276.427      0.06038075
         8283.809      0.05996305
         8291.197      0.05953559
         8298.597      0.05921029
         8305.999       0.0588275
         8313.412      0.05846229
         8320.827      0.05812253
         8328.253      0.05769729
         8335.687      0.05732314
         8343.121      0.05695603
         8350.563      0.05659672
         8358.011      0.05647908
         8365.471      0.05631913
         8372.937      0.05617846
         8380.409      0.05608683
         8387.879      0.05592546
         8395.365      0.05582961
         8402.854      0.05572795
         8410.353      0.05557454
         8417.859      0.05541176
         8425.367      0.05531697
         8432.887      0.05520123
         8440.408      0.05501284
         8447.937      0.05488647
         8455.477       0.0547191
         8463.019      0.05452074
         8470.571      0.05430346
         8478.127      0.05414258
         8485.693        0.053915
         8493.262      0.05367225
         8500.842      0.05343323
         8508.425      0.05315738
         8516.019      0.05285799
         8523.614      0.05253679
         8531.221      0.05218619
          8538.83      0.05177439
         8546.446      0.05138664
         8554.074      0.05095567
         8561.704       0.0504851
         8569.345        0.050018
         8576.993      0.04953321
         8584.644      0.04898994
         8592.301      0.04840814
         8599.969      0.04782202
          8607.64       0.0472731
         8615.321      0.04666017
         8623.006      0.04602519
         8630.702      0.04539476
         8638.405      0.04472411
         8646.105      0.04404759
         8653.821      0.04338271
          8661.54      0.04272173
         8669.271      0.04201711
         8677.008      0.04131223
         8684.747      0.04064095
         8692.493      0.03998924
         8700.251      0.03933189
         8708.012      0.03858721
         8715.783      0.03799341
         8723.563      0.03740318
         8731.343      0.03677954
         8739.136      0.03626225
         8746.926      0.03573135
         8754.732      0.03522217
         8762.546      0.03475199
         8770.361      0.03432972
         8778.188       0.0338982
         8786.019      0.03354008
         8793.859      0.03321988
         8801.703      0.03292494
         8809.554      0.03266058
         8817.416      0.03247899
         8825.286      0.03232953
         8833.157      0.03220367
         8841.041      0.03211004
         8848.922      0.03212821
         8856.819      0.03209551
         8864.724      0.03212187
         8872.631      0.03218769
          8880.55      0.03224894
         8888.476      0.03239048
         8896.403      0.03249156
         8904.338      0.03260309
          8912.28      0.03269767
         8920.234      0.03271149
         8928.195      0.03277199
         8936.159      0.03265935
         8944.135       0.0324665
         8952.117       0.0321781
         8960.097      0.03170046
         8968.094      0.03095824
         8976.093      0.03007386
         8984.104      0.02895859
         8992.122      0.02762691
         9000.143      0.02617834
         9008.175      0.02442736
         9016.205      0.02269997
         9024.252      0.02087213
         9032.306      0.01899233
         9040.362      0.01721122
         9048.431      0.01537393
         9056.506      0.01373575
         9064.579      0.01216048
         9072.669      0.01068507
         9080.761     0.009401906
         9088.865     0.008184352
         9096.978     0.007147842
         9105.092     0.006193617
         9113.218     0.005346533
         9121.341     0.004624739
         9129.481     0.003942438
          9137.63     0.003404799
          9145.78     0.002906358
         9153.942     0.002472793
         9162.112     0.002164224
         9170.284     0.002049974
         9178.464     0.001937226
         9186.655     0.001825938
         9194.849     0.001716257
         9203.056     0.001608043
         9211.264     0.001501476
         9219.485     0.001396407
         9227.708     0.001293012
         9235.938     0.001191217
         9244.182      0.00109098
         9252.427     9.924073E-4
         9260.685     8.953497E-4
         9268.949     7.999906E-4
         9277.217     7.063888E-4
         9285.492     6.295439E-4
         9293.779     5.680266E-4
         9302.068     5.152900E-4
          9310.37     4.641401E-4
         9318.675     4.239447E-4
         9326.991     3.841095E-4
         9335.315     3.496473E-4
         9343.637     3.186079E-4
         9351.977     2.894966E-4
         9360.317     2.649224E-4
         9368.672     2.409892E-4
         9377.033     2.206165E-4
         9385.396     2.015173E-4
         9393.768     1.844998E-4
         9402.152     1.695040E-4
         9410.538     1.544973E-4
         9418.937     1.422961E-4
         9427.338     1.307421E-4
         9435.752     1.203172E-4
         9444.173     1.108513E-4
         9452.592     1.021598E-4
         9461.028     9.417150E-5
         9469.472     8.684817E-5
         9477.918     8.030359E-5
         9486.377     7.407148E-5
         9494.838     6.829161E-5
         9503.313     6.320268E-5
         9511.788     5.883120E-5
         9520.272     5.471623E-5
          9528.77     5.062098E-5
         9537.269     4.734671E-5
          9545.78     4.399027E-5
           9554.3     4.088134E-5
         9562.821     3.811856E-5
         9571.351     3.547208E-5
         9579.894     3.334073E-5
         9588.438     3.088776E-5
         9596.995     2.897874E-5
         9605.561     2.700318E-5
         9614.128     2.519992E-5
         9622.704     2.365386E-5
         9631.286     2.210731E-5
         9639.882     2.087586E-5
         9648.485     1.945837E-5
         9657.092     1.814956E-5
         9665.711     1.700094E-5
         9674.332     1.601518E-5
         9682.961     1.508185E-5
         9691.603     1.412168E-5
         9700.252     1.335284E-5
         9708.904     1.250028E-5
         9717.569     1.184276E-5
         9726.237     1.119475E-5
         9734.912     1.051808E-5
         9743.601     9.864263E-6
         9752.291     9.298175E-6
         9760.995     8.804555E-6
         9769.701     8.184598E-6
         9778.421     7.766695E-6
         9787.147     7.300964E-6
         9795.872     6.832606E-6
         9804.614     6.410739E-6
         9813.359     6.054750E-6
         9822.118     5.735426E-6
         9830.884     5.408564E-6
         9839.652     5.207551E-6
         9848.435     4.787489E-6
         9857.219     4.526528E-6
         9866.011     4.273104E-6
         9874.816     4.067255E-6
         9883.624     3.856360E-6
         9892.444     3.597626E-6
         9901.273     3.396622E-6
         9910.104     3.148846E-6
         9918.944     3.005562E-6
         9927.791     2.815586E-6
         9936.651     2.658498E-6
         9945.521     2.482590E-6
         9954.391     2.354460E-6
         9963.275     2.238591E-6
         9972.162     2.049222E-6
         9981.057     1.903518E-6
         9989.964     1.807341E-6
          9998.88     1.704299E-6
          10007.8     1.611177E-6
         10016.72     1.551006E-6
         10025.67     1.497320E-6
          10034.6     1.418329E-6
         10043.56     1.339869E-6
         10052.52     1.299759E-6
         10061.49     1.258283E-6
         10070.47     1.148605E-6
         10079.46     1.118606E-6
         10088.45     1.110015E-6
         10097.44     1.095410E-6
         10106.46     9.924083E-7
         10115.48     9.542355E-7
          10124.5     9.327830E-7
         10133.53     8.801189E-7
         10142.58     8.477892E-7
         10151.62     8.159641E-7
         10160.68     7.711901E-7
         10169.74     7.173826E-7
         10178.81     6.665196E-7
          10187.9     6.593527E-7
         10196.99     6.275979E-7
         10206.08     5.780094E-7
         10215.19     5.560216E-7
         10224.31     5.550451E-7
         10233.43     5.296119E-7
         10242.56     4.802758E-7
         10251.69     4.571313E-7
         10260.85     4.277875E-7
           10270.     4.220911E-7
         10279.16     4.159157E-7
         10288.33     3.946824E-7
         10297.51     3.685356E-7
          10306.7     3.589608E-7
         10315.89     3.341276E-7
          10325.1     3.174235E-7
          10334.3     2.984452E-7
         10343.53     2.741659E-7
         10352.76     2.682082E-7
         10361.99     2.530697E-7
         10371.25     2.283184E-7
          10380.5     2.245757E-7
         10389.76     2.045295E-7
         10399.02     1.961807E-7
          10408.3     1.821867E-7
         10417.59     1.762884E-7
         10426.89     1.562061E-7
         10436.19     1.458002E-7
         10445.49     1.365323E-7
         10454.82     1.272831E-7
         10464.15     1.148214E-7
         10473.48     9.568349E-8
         10482.82     8.401134E-8
         10492.17     8.508959E-8
         10501.54     8.234436E-8
         10510.91     7.142516E-8
         10520.29     6.895119E-8
         10529.67     7.191917E-8
         10539.07     6.498938E-8
         10548.47     5.702420E-8
         10557.88     5.865566E-8
         10567.31     6.060096E-8
         10576.73     6.067386E-8
         10586.17     5.975075E-8
         10595.61     5.633745E-8
         10605.06     5.167620E-8
         10614.53     4.772131E-8
           10624.     4.826975E-8
         10633.48     5.122746E-8
         10642.96     4.886837E-8
         10652.45     4.596385E-8
         10661.97     4.506486E-8
         10671.48     4.590047E-8
         10680.99     4.619623E-8
         10690.53     4.148347E-8
         10700.07     3.610119E-8
         10709.61     3.899788E-8
         10719.16     3.837265E-8
         10728.72     3.804738E-8
         10738.31     3.369903E-8
         10747.88     3.354074E-8
         10757.47     3.272302E-8
         10767.08     3.195556E-8
         10776.67     3.143543E-8
         10786.29     3.010242E-8
         10795.91     2.910680E-8
         10805.54     2.870067E-8
         10815.18     2.695618E-8
         10824.83     2.499036E-8
         10834.49     2.440961E-8
         10844.17     2.353222E-8
         10853.84     2.241734E-8
         10863.52     2.213727E-8
         10873.21     2.159013E-8
         10882.91     2.064550E-8
         10892.63     1.839086E-8
         10902.35     1.778015E-8
         10912.07     1.755135E-8
         10921.81     1.667225E-8
         10931.54     1.532943E-8
         10941.31     1.462227E-8
         10951.07     1.371743E-8
         10960.83     1.209736E-8
         10970.62     1.212904E-8
         10980.39     1.114519E-8
          10990.2     1.058557E-8
           11000.     9.304428E-9
