#  Table wf2f439wsys.tab  Mon 12:21:43 02-Jun-97

#      WAVELENGTH      THROUGHPUT
#       angstroms                

            1850.     1.618348E-8
         1851.651     1.770076E-8
         1853.301     1.923051E-8
         1854.956     2.077721E-8
         1856.611     2.233593E-8
         1858.267     2.390889E-8
         1859.925     2.549710E-8
         1861.584     1.104516E-7
         1863.246     2.002221E-7
         1864.909     2.908538E-7
         1866.572     3.822834E-7
         1868.237     4.745814E-7
         1869.904     5.678000E-7
         1871.573     4.854907E-7
         1873.242     3.916174E-7
         1874.913     2.968348E-7
         1876.585     2.011317E-7
          1878.26     1.044329E-7
         1879.937     6.808122E-9
         1881.613     9.205398E-9
         1883.292     1.559946E-8
         1884.973     2.205008E-8
         1886.654     2.854992E-8
         1888.338     3.510718E-8
         1890.023     4.452146E-8
         1891.709     2.579189E-7
         1893.396     4.731097E-7
         1895.086     6.902096E-7
         1896.775     9.088301E-7
         1898.469     1.129657E-6
         1900.163     1.309491E-6
         1901.857     1.089435E-6
         1903.555     8.672141E-7
         1905.254     6.430906E-7
         1906.953     4.172220E-7
         1908.655     1.893108E-7
         1910.357     1.283233E-8
         1912.061     3.618243E-8
         1913.768     5.974161E-8
         1915.476     8.349881E-8
         1917.184     1.074391E-7
         1918.894     1.315784E-7
         1920.606     1.405031E-7
          1922.32     1.212180E-7
         1924.035     1.017673E-7
         1925.752     8.216034E-8
          1927.47     6.237576E-8
         1929.189     4.243416E-8
          1930.91     5.517331E-8
         1932.634     9.743757E-8
         1934.358     1.400550E-7
         1936.084     1.829991E-7
         1937.811     2.263040E-7
          1939.54     2.699925E-7
          1941.27     2.706571E-7
         1943.003     2.555353E-7
         1944.737     2.402786E-7
          1946.47     2.249062E-7
         1948.207     2.093798E-7
         1949.947     1.937086E-7
         1951.685     1.743717E-7
         1953.427     1.547294E-7
         1955.171     1.349183E-7
         1956.913     1.149617E-7
          1958.66     9.481036E-8
         1960.408     7.922599E-8
         1962.157     7.914710E-8
         1963.908     7.906534E-8
         1965.658     7.898088E-8
         1967.413     7.889348E-8
         1969.169     7.880324E-8
         1970.925     9.811024E-8
         1972.684     1.351148E-7
         1974.444     1.724026E-7
         1976.205     2.099976E-7
         1977.969     2.479451E-7
         1979.734     2.861570E-7
           1981.5     2.937434E-7
         1983.268     2.958689E-7
         1985.037     2.980031E-7
         1986.809     3.001483E-7
         1988.581     3.023019E-7
         1990.355     2.946330E-7
         1992.131     2.474779E-7
         1993.908     1.999264E-7
         1995.688     1.519183E-7
         1997.467     1.036007E-7
          1999.25     5.482391E-8
         2001.034     6.040417E-8
         2002.818     1.059230E-7
         2004.606     1.519635E-7
         2006.396     1.984184E-7
         2008.184     2.452537E-7
         2009.976     2.925900E-7
         2011.769     2.882028E-7
         2013.565     2.830600E-7
         2015.362     2.778589E-7
         2017.158     2.726058E-7
         2018.958     2.672877E-7
          2020.76     2.450359E-7
         2022.563     1.993594E-7
         2024.368     1.532117E-7
         2026.173     1.066535E-7
         2027.982     5.961953E-8
         2029.791     1.216820E-8
         2031.602     1.196138E-7
         2033.414     2.484026E-7
         2035.228     3.783923E-7
         2037.044     5.096682E-7
         2038.861     6.420771E-7
         2040.681     6.912441E-7
         2042.502     5.987528E-7
         2044.324     5.054380E-7
         2046.147     4.112527E-7
         2047.974     3.161228E-7
           2049.8     2.201651E-7
          2051.63     1.924018E-7
         2053.461     1.728937E-7
         2055.291     1.532256E-7
         2057.125     1.333522E-7
         2058.961     1.132936E-7
         2060.798     9.713020E-8
         2062.637     8.613235E-8
         2064.477     7.504080E-8
         2066.318     6.384931E-8
         2068.164     5.254243E-8
         2070.007     4.117228E-8
         2071.855     3.440202E-8
         2073.704     2.757217E-8
         2075.553     2.068616E-8
         2077.405     1.374010E-8
         2079.259     6.727295E-9
         2081.113     5.768360E-9
         2082.971     8.890048E-9
         2084.829     1.203623E-8
         2086.688     1.520864E-8
          2088.55     1.840992E-8
         2090.414     2.128884E-8
         2092.279     2.296294E-8
         2094.145     2.465003E-8
         2096.014     2.635196E-8
         2097.885     2.806724E-8
         2099.756     2.979500E-8
          2101.63     4.584141E-8
         2103.503     6.414741E-8
         2105.381     8.261918E-8
          2107.26     1.012408E-7
         2109.139     1.199981E-7
         2111.022     1.311284E-7
         2112.906     1.357580E-7
         2114.789     1.404150E-7
         2116.677     1.451117E-7
         2118.564     1.498390E-7
         2120.455     1.504800E-7
         2122.348     1.380690E-7
         2124.241     1.255723E-7
         2126.135     1.129784E-7
         2128.033     1.002819E-7
         2129.932     8.748734E-8
         2131.832     7.276687E-8
         2133.734     5.786979E-8
         2135.637     4.286724E-8
         2137.544     2.773747E-8
          2139.45     1.252177E-8
         2141.359     7.625260E-9
          2143.27     6.929648E-9
         2145.182     6.229143E-9
         2147.096     5.523006E-9
         2149.011     4.812022E-9
         2150.929     6.737681E-9
         2152.848     1.149651E-8
         2154.768     1.628845E-8
         2156.692     2.111979E-8
         2158.615     2.597532E-8
         2160.541     3.101039E-8
         2162.469     3.643589E-8
         2164.397     4.188972E-8
          2166.33     4.738930E-8
         2168.263     5.292168E-8
         2170.196     5.689963E-8
         2172.133     4.682272E-8
          2174.07     3.669147E-8
         2176.011     2.649031E-8
         2177.953     1.622664E-8
         2179.895     5.908019E-9
          2181.84     5.891836E-9
         2183.787     6.467884E-9
         2185.735     7.046828E-9
         2187.686     7.629261E-9
         2189.637     8.214537E-9
          2191.59     1.220280E-8
         2193.546     1.699353E-8
         2195.503     2.180801E-8
         2197.462     2.664449E-8
         2199.423     3.150910E-8
         2201.385     2.919708E-8
         2203.348     2.381254E-8
         2205.315     1.833408E-8
         2207.283     1.276525E-8
         2209.252     7.109130E-9
         2211.222     6.019080E-9
         2213.196     7.787288E-9
          2215.17     9.580957E-9
         2217.147     1.140288E-8
         2219.125     1.325185E-8
         2221.104     1.328091E-8
         2223.086     1.183389E-8
         2225.071     1.036330E-8
         2227.055     8.872689E-9
         2229.042     7.357380E-9
         2231.031     6.885933E-9
         2233.021     7.405363E-9
         2235.015     7.932291E-9
         2237.008     8.465455E-9
         2239.003     9.005593E-9
         2241.002     9.953422E-9
         2242.999     1.131324E-8
         2245.002     1.269346E-8
         2247.005     1.409013E-8
         2249.009     1.550501E-8
         2251.016     1.799114E-8
         2253.024     2.154090E-8
         2255.033     2.513602E-8
         2257.046     2.877937E-8
         2259.061     3.246852E-8
         2261.075     3.125135E-8
         2263.092     2.566353E-8
         2265.112     1.999908E-8
         2267.134     1.426103E-8
         2269.156     8.453299E-9
         2271.181     6.028358E-9
         2273.207     6.062548E-9
         2275.234     6.096804E-9
         2277.266     6.131174E-9
         2279.296     6.165542E-9
          2281.33     1.651246E-8
         2283.366     3.247190E-8
         2285.402     4.860067E-8
         2287.441     6.493822E-8
         2289.483     8.146407E-8
         2291.525     9.175834E-8
          2293.57     9.998515E-8
         2295.615     1.082910E-7
         2297.663     1.167301E-7
         2299.715     1.252780E-7
         2301.765     1.409063E-7
          2303.82     1.578732E-7
         2305.876     1.750327E-7
         2307.932     1.923754E-7
         2309.992     2.099247E-7
         2312.051     1.726132E-7
         2314.116     1.345793E-7
          2316.18     9.614141E-8
         2318.246     5.726215E-8
         2320.315     2.341637E-8
         2322.385     2.008403E-8
         2324.457     1.671089E-8
         2326.531     1.330115E-8
         2328.606     9.852286E-9
         2330.685     7.539875E-9
         2332.764     7.616102E-9
         2334.845     7.692837E-9
         2336.927     7.770065E-9
         2339.012     7.847800E-9
         2341.101     7.869499E-9
         2343.188     7.839986E-9
         2345.279     7.809822E-9
         2347.372     7.778982E-9
         2349.467     7.747491E-9
         2351.562     1.231126E-8
         2353.661     1.850424E-8
         2355.759     2.475249E-8
         2357.862     3.107301E-8
         2359.966     3.745731E-8
         2362.071     3.153486E-8
         2364.179     2.534206E-8
         2366.288     1.908975E-8
         2368.398     1.277341E-8
         2370.512     8.012987E-9
         2372.628     8.312911E-9
         2374.744     8.615298E-9
         2376.863     8.920529E-9
         2378.983     9.228273E-9
         2381.105     9.231487E-9
          2383.23     8.950194E-9
         2385.357     8.665936E-9
         2387.485     8.378833E-9
         2389.615     8.088746E-9
         2391.747     1.948751E-8
         2393.881     3.357484E-8
         2396.017     4.780015E-8
         2398.154     6.214600E-8
         2400.293     7.272497E-8
         2402.435     5.872195E-8
          2404.58     4.458932E-8
         2406.724     3.033796E-8
         2408.872     1.594960E-8
         2411.022     9.711635E-9
         2413.171     1.259261E-8
         2415.326     1.550374E-8
         2417.479     1.843424E-8
         2419.637     2.139379E-8
         2421.796     2.116034E-8
         2423.957     2.027153E-8
          2426.12     1.937413E-8
         2428.284     1.846922E-8
         2430.451     1.773915E-8
         2432.619     1.770454E-8
         2434.789     1.766921E-8
         2436.962     1.763313E-8
         2439.136     1.759633E-8
         2441.312     2.415293E-8
          2443.49     3.511976E-8
          2445.67     4.618097E-8
         2447.853     5.733191E-8
         2450.036     6.817524E-8
         2452.222     5.612548E-8
         2454.409     4.397869E-8
           2456.6     3.172629E-8
         2458.792     1.937745E-8
         2460.985     1.351467E-8
          2463.18     1.570598E-8
         2465.379     1.791553E-8
         2467.579     2.014166E-8
         2469.778     2.238193E-8
         2471.983     3.284362E-8
          2474.19     4.431240E-8
         2476.396     5.584791E-8
         2478.606     6.748482E-8
         2480.817     7.557268E-8
         2483.029     7.749966E-8
         2485.247     7.944229E-8
         2487.462     8.139438E-8
         2489.682     8.336200E-8
         2491.904     7.400799E-8
         2494.125     6.269685E-8
         2496.353     5.127801E-8
         2498.579     3.978613E-8
         2500.808     3.061140E-8
          2503.04     2.561107E-8
         2505.272     2.057614E-8
         2507.509     1.549932E-8
         2509.745     1.038824E-8
         2511.985     9.831625E-9
         2514.225     9.863944E-9
         2516.468     9.896319E-9
         2518.714     9.928762E-9
         2520.962     1.150495E-8
          2523.21     1.516282E-8
         2525.462     1.884998E-8
         2527.715     2.256173E-8
         2529.971     2.630297E-8
         2532.229     2.293079E-8
         2534.486     1.944297E-8
         2536.748     1.592469E-8
          2539.01     1.236243E-8
         2541.277     1.073393E-8
         2543.545     1.061665E-8
         2545.813     1.049885E-8
         2548.084     1.038048E-8
         2550.358     1.053664E-8
         2552.635     1.216881E-8
         2554.911     1.380575E-8
         2557.191     1.544987E-8
         2559.471     1.709798E-8
         2561.755     1.729764E-8
         2564.042     1.705781E-8
         2566.329     1.681700E-8
         2568.619     1.657496E-8
         2570.908     2.721441E-8
         2573.205     5.453105E-8
           2575.5     8.191135E-8
         2577.797     1.093984E-7
         2580.097     1.347235E-7
         2582.399     1.085387E-7
         2584.704     8.223432E-8
          2587.01     5.583318E-8
         2589.318     2.934414E-8
         2591.629     2.159998E-8
          2593.94     2.174284E-8
         2596.254     2.188594E-8
         2598.573     2.202949E-8
         2600.889     3.633847E-8
          2603.21     7.354933E-8
         2605.532     1.108769E-7
         2607.856     1.483478E-7
         2610.185     1.805354E-7
         2612.512     1.492933E-7
         2614.843     1.178934E-7
         2617.177     8.636878E-8
          2619.51     5.475984E-8
         2621.849     8.497574E-8
         2624.188     1.317264E-7
         2626.528     1.786544E-7
         2628.873     2.257933E-7
         2631.217     2.258825E-7
         2633.566     1.821204E-7
         2635.916     1.381868E-7
         2638.267     9.410552E-8
          2640.62     5.848636E-8
         2642.977     4.690351E-8
         2645.334     3.528142E-8
         2647.695     2.360708E-8
         2650.057     1.230966E-8
         2652.422     1.785300E-8
         2654.788     2.341406E-8
         2657.157     2.900021E-8
         2659.526     3.460095E-8
         2661.899     3.106948E-8
         2664.275     2.523151E-8
         2666.652     1.937378E-8
         2669.031     1.348981E-8
         2671.412     1.289710E-8
         2673.796     1.595506E-8
         2676.181     1.902257E-8
          2678.57     2.210362E-8
          2680.96     3.165559E-8
          2683.35     5.086667E-8
         2685.746     7.018553E-8
          2688.14     8.954284E-8
          2690.54     1.000007E-7
         2692.941     7.941720E-8
         2695.343     5.876363E-8
         2697.748     3.801937E-8
         2700.153     1.871975E-8
         2702.563     2.145609E-8
         2704.975     2.421090E-8
         2707.387     2.698280E-8
         2709.804     2.977548E-8
         2712.222     2.594921E-8
         2714.642     2.151068E-8
         2717.063     1.704134E-8
         2719.486     1.254023E-8
         2721.915     1.161032E-8
         2724.343     1.164531E-8
         2726.772     1.168032E-8
         2729.205     1.171537E-8
          2731.64     2.470928E-8
         2734.078     4.410083E-8
         2736.517     6.361374E-8
         2738.958     8.325799E-8
         2741.402     8.192565E-8
         2743.849     6.482193E-8
         2746.296     4.761142E-8
         2748.747     3.027156E-8
         2751.198     2.025513E-8
         2753.653     1.796955E-8
         2756.111     1.567899E-8
         2758.569     1.338481E-8
         2761.031     1.205098E-8
         2763.495     1.205855E-8
         2765.958     1.206611E-8
         2768.427     1.207369E-8
         2770.898     1.218075E-8
         2773.369     1.246233E-8
         2775.844     1.274467E-8
          2778.32     1.302744E-8
         2780.799     2.456951E-8
          2783.28     5.986915E-8
         2785.764     9.524617E-8
         2788.249     1.306728E-7
         2790.736     1.452717E-7
         2793.227     1.100785E-7
          2795.72     7.481316E-8
         2798.213     3.949630E-8
         2800.709     2.137771E-8
         2803.209     4.680648E-8
         2805.709     7.227143E-8
         2808.213     9.780501E-8
         2810.718     1.161268E-7
         2813.226     1.164221E-7
         2815.736     1.167178E-7
         2818.247     1.170139E-7
         2820.764     1.262455E-7
         2823.278     1.559703E-7
         2825.798     1.857894E-7
          2828.32     2.156654E-7
         2830.843     2.202576E-7
         2833.369     1.742839E-7
         2835.898     1.282192E-7
         2838.426     8.212545E-8
         2840.959     4.946079E-8
         2843.495     3.905038E-8
         2846.031     2.862699E-8
         2848.571     1.817653E-8
         2851.112     1.229607E-8
         2853.655     1.230182E-8
         2856.202     1.230757E-8
         2858.751     1.231333E-8
         2861.301     1.286215E-8
         2863.853     1.393426E-8
         2866.407     1.500835E-8
         2868.965     1.608505E-8
         2871.526     1.890832E-8
         2874.087     2.291831E-8
         2876.652     2.693821E-8
         2879.218     3.096231E-8
         2881.788     2.865318E-8
         2884.358     2.356430E-8
         2886.931     1.846630E-8
         2889.507     1.335673E-8
         2892.084     1.723230E-8
         2894.666     2.324652E-8
         2897.248     2.926782E-8
         2899.832     3.529847E-8
         2902.421     6.119627E-8
          2905.01     8.838922E-8
         2907.601     1.155320E-7
         2910.198     1.383366E-7
          2912.79     1.087815E-7
         2915.392     7.920960E-8
         2917.992     4.973245E-8
         2920.594     2.713027E-8
         2923.203     2.758379E-8
         2925.807     2.803515E-8
          2928.42     2.848650E-8
         2931.033     2.703169E-8
         2933.646     2.267310E-8
         2936.266     1.831554E-8
         2938.885     1.397249E-8
         2941.506     2.929062E-8
         2944.131     5.913714E-8
         2946.757     8.890167E-8
         2949.387     1.186198E-7
         2952.018     1.043915E-7
         2954.653     7.686897E-8
          2957.29     4.940594E-8
         2959.926     2.203569E-8
         2962.567     2.685081E-8
          2965.21     3.258090E-8
         2967.856     3.830069E-8
         2970.505     4.134228E-8
         2973.155     3.307717E-8
         2975.808     2.482537E-8
         2978.461     1.660292E-8
         2981.121     1.301439E-8
          2983.78     1.578620E-8
         2986.441     1.855139E-8
         2989.104     2.130964E-8
         2991.772     2.400585E-8
         2994.442     2.666598E-8
         2997.113     2.931807E-8
         2999.788     3.196521E-8
         3002.464     4.272054E-8
         3005.142     5.414588E-8
         3007.826     6.555704E-8
         3010.507     7.156240E-8
         3013.194     5.457690E-8
         3015.883     3.763371E-8
         3018.573     2.074376E-8
         3021.267     1.176371E-8
          3023.96     1.167455E-8
          3026.66     1.158538E-8
          3029.36     1.149645E-8
         3032.062     1.219005E-8
          3034.77     1.312548E-8
         3037.475     1.405664E-8
         3040.186     1.485524E-8
         3042.897     1.387533E-8
         3045.612     1.289786E-8
         3048.332     1.192171E-8
         3051.051     1.321911E-8
         3053.772     1.811386E-8
         3056.497     2.299841E-8
         3059.222     2.786263E-8
         3061.954     2.569782E-8
         3064.685     2.074991E-8
         3067.418     1.581535E-8
         3070.156     1.127806E-8
         3072.896     1.313515E-8
         3075.637     1.498580E-8
          3078.38     1.683083E-8
         3081.126     1.743987E-8
         3083.877     1.627700E-8
         3086.628     1.511875E-8
         3089.381     1.396388E-8
         3092.137     2.114618E-8
         3094.895     3.071817E-8
         3097.659     4.027289E-8
         3100.422     4.928011E-8
         3103.187     5.547440E-8
         3105.955     6.169164E-8
         3108.729     6.793958E-8
         3111.501     6.835605E-8
         3114.277     6.380996E-8
         3117.056     5.924390E-8
         3119.836     5.466384E-8
         3122.621     6.319021E-8
         3125.406     7.256570E-8
         3128.195     8.198090E-8
         3130.985     8.139001E-8
         3133.778     6.237339E-8
         3136.575     4.327428E-8
         3139.373     2.411585E-8
         3142.175     8.560363E-8
         3144.979     1.706607E-7
         3147.784     2.559900E-7
         3150.592     3.062636E-7
         3153.405     2.237981E-7
         3156.218     1.411333E-7
         3159.035     5.810353E-8
         3161.851     2.623050E-8
         3164.674     2.108392E-8
         3167.497     1.592441E-8
         3170.322     1.488776E-8
         3173.152     4.610951E-8
         3175.982     7.743028E-8
         3178.816     1.088855E-7
         3181.652     1.309705E-7
          3184.49     1.463347E-7
         3187.333     1.617767E-7
         3190.175     1.736446E-7
         3193.022     1.303563E-7
          3195.87     8.692985E-8
         3198.722     4.331634E-8
         3201.577     2.421763E-8
         3204.433     2.508949E-8
         3207.291     2.596449E-8
         3210.151     2.656759E-8
         3213.018     2.223255E-8
         3215.884     1.788687E-8
         3218.752     1.352460E-8
         3221.623     1.374564E-8
         3224.499     1.751298E-8
         3227.376     2.129453E-8
         3230.255     2.718903E-8
         3233.136     5.476228E-8
          3236.02     8.243983E-8
         3238.908     1.102384E-7
         3241.799     1.125070E-7
          3244.69     9.919817E-8
         3247.584     8.583725E-8
         3250.485     7.177265E-8
         3253.384     5.448979E-8
         3256.286     3.714123E-8
         3259.192     1.971654E-8
         3262.097     1.457179E-8
          3265.01     1.416673E-8
         3267.922     1.376063E-8
         3270.837     1.514444E-8
         3273.758     2.099742E-8
         3276.675     2.685744E-8
         3279.601     3.275450E-8
         3282.526     3.537062E-8
         3285.454     3.747473E-8
         3288.388     3.958919E-8
         3291.319     4.888154E-8
         3294.257     6.702000E-8
         3297.195     8.521540E-8
         3300.137     1.013981E-7
         3303.083     7.483675E-8
         3306.029     4.818908E-8
         3308.979     2.142612E-8
         3311.931     3.840180E-8
         3314.885     7.865940E-8
         3317.844     1.190941E-7
         3320.803     1.387997E-7
         3323.767     1.024078E-7
         3326.731     6.589723E-8
           3329.7     2.922258E-8
          3332.67     2.248520E-8
         3335.643     1.910088E-8
         3338.622     1.569956E-8
         3341.599     2.154270E-8
          3344.58     3.540347E-8
         3347.563     4.931640E-8
         3350.551     7.232562E-8
         3353.541     1.354903E-7
         3356.532     1.988620E-7
         3359.528     2.625139E-7
         3362.524     2.446002E-7
         3365.525     2.112659E-7
         3368.527     1.778214E-7
         3371.532     1.756931E-7
         3374.541     2.038772E-7
         3377.551     2.321540E-7
         3380.565     2.421490E-7
         3383.582     1.722245E-7
         3386.598     1.021125E-7
         3389.623     3.159640E-8
         3392.646     2.012886E-8
         3395.672     1.708020E-8
         3398.705     1.401584E-8
         3401.732     2.018848E-8
          3404.77     3.334396E-8
         3407.807     4.653499E-8
         3410.847     5.377079E-8
         3413.893     4.543007E-8
         3416.938     3.706651E-8
         3419.985     2.866931E-8
         3423.038     3.269096E-8
         3426.089     3.678370E-8
         3429.148     4.090003E-8
         3432.207     3.572127E-8
         3435.268     2.692234E-8
         3438.334     1.808270E-8
         3441.401     1.323474E-8
         3444.473     1.316065E-8
         3447.545     1.308627E-8
         3450.622     1.972359E-8
         3453.701     5.296842E-8
         3456.782     8.632257E-8
         3459.865     1.198127E-7
         3462.951     8.993656E-8
         3466.042     5.700961E-8
         3469.135     2.395022E-8
         3472.229     1.802989E-8
         3475.326     2.268690E-8
         3478.426     2.736267E-8
         3481.532     2.739887E-8
         3484.638     2.263903E-8
         3487.746     1.786010E-8
         3490.859     1.551584E-8
         3493.972     1.962744E-8
         3497.091     2.375801E-8
          3500.21     2.732752E-8
         3503.334     2.290964E-8
          3506.46     1.847316E-8
         3509.586     1.402360E-8
          3512.72     1.434828E-8
         3515.852     1.540457E-8
         3518.989     1.646641E-8
          3522.13     1.612309E-8
         3525.271     1.510825E-8
         3528.418     1.408851E-8
         3531.563     1.493474E-8
         3534.717     1.768648E-8
          3537.87     2.044649E-8
         3541.025     2.502842E-8
         3544.188     3.341221E-8
         3547.349     4.182053E-8
         3550.513     4.866286E-8
         3553.679     4.723022E-8
         3556.849     4.579124E-8
         3560.026     4.440999E-8
         3563.201     5.112999E-8
         3566.379     5.787821E-8
         3569.562     6.465997E-8
         3572.746     7.809770E-8
         3575.935     9.266261E-8
         3579.124     1.072799E-7
         3582.316     9.186009E-8
         3585.513     6.494597E-8
         3588.714     3.791259E-8
         3591.915     3.776022E-8
         3595.118     5.578112E-8
         3598.325     7.388151E-8
         3601.538     8.563158E-8
         3604.751     9.038554E-8
         3607.966     9.515955E-8
         3611.184     9.213770E-8
         3614.409     7.561491E-8
         3617.633     5.904109E-8
         3620.859     6.128333E-8
         3624.089     1.157035E-7
         3627.322     1.703587E-7
         3630.561     2.071141E-7
         3633.799     1.569044E-7
          3637.04     1.064738E-7
         3640.286     6.278619E-8
         3643.533     9.140258E-8
         3646.785     1.201594E-7
         3650.038     1.488568E-7
         3653.295     1.633062E-7
         3656.556     1.778197E-7
         3659.815     1.923769E-7
         3663.082     1.872611E-7
         3666.353     1.809302E-7
         3669.621     1.745818E-7
         3672.896     1.854530E-7
         3676.172     1.986283E-7
         3679.451     2.118600E-7
         3682.737     2.100862E-7
         3686.022     2.052760E-7
         3689.309     2.004439E-7
           3692.6     1.688782E-7
         3695.896     1.300376E-7
         3699.194     9.102160E-8
         3702.494     1.282367E-7
         3705.798     1.904036E-7
         3709.101     2.527667E-7
         3712.412     2.630777E-7
         3715.725     2.538517E-7
         3719.039     2.445899E-7
         3722.358     2.771651E-7
         3725.678     3.269611E-7
         3729.004     3.770096E-7
          3732.33     3.775630E-7
         3735.659     3.568107E-7
         3738.995     3.359388E-7
          3742.33     3.677523E-7
         3745.668     4.225245E-7
         3749.009     4.775373E-7
         3752.354     6.102695E-7
         3755.703     7.762841E-7
         3759.053     9.429339E-7
         3762.408     1.011879E-6
         3765.764     1.042259E-6
         3769.125     1.072787E-6
         3772.487     1.200998E-6
         3775.852     1.364194E-6
         3779.222     1.528226E-6
         3782.594     1.715638E-6
         3785.968     1.910575E-6
         3789.345     2.106379E-6
         3792.725     2.373931E-6
         3796.112     2.660079E-6
         3799.498     2.947142E-6
         3802.887     3.340098E-6
         3806.279     3.753014E-6
         3809.676     4.168033E-6
         3813.076     4.958106E-6
         3816.477     5.790626E-6
         3819.881     6.626773E-6
          3823.29     7.743508E-6
           3826.7     8.874452E-6
         3830.116     1.004452E-5
         3833.532     1.217608E-5
         3836.951     1.431688E-5
         3840.378     1.659780E-5
         3843.803     1.992126E-5
         3847.232     2.325914E-5
         3850.663     2.730126E-5
         3854.102     3.425709E-5
          3857.54     4.123501E-5
          3860.98     4.936124E-5
         3864.426     6.034346E-5
         3867.875     7.137359E-5
         3871.325     8.757134E-5
         3874.778     1.120838E-4
         3878.234     1.367013E-4
         3881.695     1.698051E-4
         3885.157     2.117622E-4
         3888.625     2.539278E-4
         3892.094     3.300437E-4
         3895.565     4.287367E-4
         3899.044     5.279827E-4
         3902.521     6.907986E-4
         3906.002     8.783824E-4
         3909.489      0.00106688
         3912.975     0.001117557
         3916.468     0.001144597
         3919.961     0.001171729
         3923.457     0.001517558
         3926.961     0.001962557
         3930.462     0.002543556
         3933.969     0.003309552
         3937.478     0.004257982
         3940.992     0.005448757
          3944.51     0.006926938
         3948.028     0.008654196
          3951.55      0.01068989
         3955.074      0.01300009
         3958.606      0.01532238
         3962.137      0.01760378
         3965.671      0.01981096
          3969.21       0.0216799
          3972.75       0.0232147
         3976.296      0.02444762
         3979.843      0.02536157
         3983.395      0.02605113
          3986.95      0.02649403
         3990.504       0.0268774
         3994.065       0.0271039
          3997.63      0.02729887
         4001.196      0.02750511
         4004.767      0.02768451
         4008.339        0.027864
         4011.914      0.02800454
         4015.494      0.02819235
         4019.078      0.02836287
         4022.663      0.02855025
         4026.251      0.02874124
         4029.844      0.02892253
         4033.441       0.0291712
         4037.039      0.02941362
         4040.639      0.02966242
         4044.243      0.02989735
         4047.855      0.03011167
         4051.465      0.03037606
         4055.079      0.03067985
         4058.698      0.03094392
         4062.316      0.03118708
         4065.944      0.03144884
          4069.57      0.03175572
           4073.2      0.03201849
         4076.838       0.0323096
         4080.472      0.03263181
         4084.114      0.03294635
         4087.756       0.0331771
         4091.405      0.03354724
         4095.056      0.03380662
         4098.708      0.03413897
         4102.367      0.03437195
         4106.026      0.03474237
         4109.688      0.03499117
         4113.356      0.03533858
         4117.025      0.03561979
         4120.699      0.03591335
         4124.375       0.0361141
         4128.056      0.03649882
         4131.738      0.03675054
         4135.423      0.03694554
         4139.116      0.03716699
         4142.808      0.03740359
         4146.503      0.03755098
         4150.201      0.03773285
         4153.903      0.03791189
         4157.613      0.03802463
         4161.321      0.03811713
         4165.033      0.03824831
         4168.748      0.03827987
         4172.466       0.0383243
         4176.192      0.03838071
         4179.917      0.03833375
         4183.645      0.03832406
         4187.379      0.03828422
         4191.116      0.03823774
         4194.854      0.03817854
         4198.596      0.03809575
         4202.343      0.03804595
         4206.094      0.03798428
         4209.845      0.03793824
         4213.603      0.03797171
         4217.358      0.03791276
         4221.123      0.03784082
          4224.89      0.03779333
         4228.658      0.03774703
         4232.432      0.03770982
         4236.208      0.03766673
         4239.988       0.0376629
          4243.77      0.03762987
         4247.555      0.03761965
         4251.348      0.03764463
          4255.14      0.03767271
         4258.936      0.03768757
         4262.734      0.03779871
         4266.537      0.03784227
         4270.347       0.0378505
         4274.155       0.0379311
         4277.968      0.03809739
         4281.786      0.03811074
         4285.605      0.03816716
          4289.43      0.03825579
         4293.256      0.03835054
         4297.085      0.03839723
         4300.922      0.03847288
         4304.759      0.03849715
         4308.598      0.03853324
         4312.441      0.03857582
          4316.29      0.03856763
         4320.142      0.03860491
         4323.996      0.03855704
         4327.854      0.03855479
         4331.715      0.03857378
         4335.581      0.03848195
         4339.448      0.03844034
         4343.318      0.03843052
         4347.195      0.03832383
         4351.072      0.03825362
         4354.956      0.03819998
          4358.84      0.03812622
         4362.728      0.03800269
         4366.624      0.03795312
         4370.519      0.03784828
         4374.417      0.03771584
         4378.318      0.03761552
         4382.229      0.03755592
         4386.137      0.03741406
         4390.049      0.03731899
         4393.967        0.037195
         4397.889      0.03710388
         4401.812       0.0369564
         4405.738       0.0368758
         4409.667      0.03676076
         4413.603      0.03664454
         4417.542      0.03651337
         4421.482      0.03639788
         4425.426      0.03621965
         4429.373       0.0360955
         4433.329      0.03593714
         4437.283      0.03575228
         4441.241      0.03561377
         4445.205      0.03542461
         4449.169      0.03526338
          4453.14      0.03503755
         4457.112      0.03483703
         4461.088      0.03464585
         4465.069      0.03446199
         4469.052      0.03425521
         4473.041      0.03401302
          4477.03      0.03378925
         4481.028      0.03359995
         4485.022      0.03336698
         4489.025       0.0331435
         4493.032      0.03291919
         4497.039      0.03267417
         4501.053      0.03244233
         4505.067       0.0323483
         4509.086      0.03219947
         4513.107      0.03206508
         4517.136       0.0319405
         4521.167      0.03179476
           4525.2       0.0315665
         4529.238      0.03139418
         4533.281      0.03120384
         4537.324      0.03092441
         4541.371      0.03067811
         4545.422       0.0303944
         4549.479      0.03015216
         4553.539      0.02978859
           4557.6         0.02949
         4561.668      0.02911942
         4565.734       0.0287573
         4569.809      0.02839441
         4573.887      0.02800252
         4577.967      0.02761892
         4582.053      0.02725554
         4586.142      0.02685851
         4590.233       0.0265512
         4594.327      0.02623937
         4598.425      0.02599882
         4602.529      0.02578062
         4606.637      0.02557189
         4610.746       0.0254801
          4614.86       0.0254022
         4618.979      0.02541268
         4623.097      0.02549988
         4627.223      0.02564056
          4631.35       0.0258851
         4635.483      0.02614007
         4639.621      0.02644028
         4643.759      0.02675372
           4647.9      0.02697284
         4652.046      0.02709966
         4656.198      0.02704217
         4660.354      0.02665121
         4664.511      0.02585587
         4668.673      0.02461305
          4672.84       0.0228417
         4677.005      0.02075024
          4681.18      0.01838034
         4685.355      0.01582898
         4689.537      0.01330967
         4693.722      0.01098368
         4697.909     0.008948477
         4702.102     0.007195234
         4706.293     0.005784282
         4710.493     0.004627954
         4714.697     0.003705153
         4718.902     0.002966721
         4723.114     0.002385228
          4727.33     0.001933557
         4731.543     0.001567075
         4735.766     0.001284085
          4739.99     0.001045112
         4744.221     8.581729E-4
         4748.455     7.186366E-4
          4752.69     6.294654E-4
         4756.932     5.395297E-4
         4761.172     4.567358E-4
         4765.421     3.935590E-4
         4769.674     3.298897E-4
         4773.929     2.821152E-4
         4778.189     2.352999E-4
         4782.454     1.999807E-4
         4786.719     1.731881E-4
         4790.989     1.477345E-4
         4795.262     1.272407E-4
         4799.542     1.065754E-4
         4803.826     9.363234E-5
          4808.11     8.154455E-5
         4812.401     7.084804E-5
         4816.696     6.124804E-5
         4820.993     5.247754E-5
         4825.292     4.664092E-5
         4829.597     4.075866E-5
         4833.907     3.585605E-5
         4838.221     3.102184E-5
         4842.537     2.726417E-5
         4846.855     2.425990E-5
         4851.179     2.138338E-5
         4855.508     1.888817E-5
         4859.842     1.637409E-5
         4864.177     1.477653E-5
         4868.518     1.320149E-5
         4872.863     1.177519E-5
         4877.209     1.042231E-5
          4881.56     9.233741E-6
         4885.914     8.350150E-6
         4890.277     7.467382E-6
         4894.639     6.705940E-6
         4899.004     5.938809E-6
         4903.376     5.367888E-6
         4907.748     4.853180E-6
          4912.13     4.374878E-6
         4916.512     3.937268E-6
         4920.897     3.526858E-6
         4925.289     3.232116E-6
         4929.685     2.935155E-6
         4934.082     2.674612E-6
         4938.482     2.415130E-6
         4942.887     2.211084E-6
         4947.301     2.035580E-6
         4951.714     1.864009E-6
         4956.131     1.699086E-6
         4960.554     1.540703E-6
         4964.976     1.436154E-6
          4969.41     1.330641E-6
         4973.842     1.223522E-6
         4978.278     1.115486E-6
         4982.724     1.031884E-6
         4987.168     9.638499E-7
         4991.617     8.966944E-7
         4996.069     8.314692E-7
         5000.528     7.670268E-7
         5004.991     7.117808E-7
         5009.455     6.560855E-7
         5013.923     6.040606E-7
         5018.398     5.521384E-7
         5022.874     5.109698E-7
         5027.357     4.756781E-7
         5031.841     4.419654E-7
         5036.329     4.106427E-7
         5040.827     3.789271E-7
         5045.323     3.465885E-7
         5049.823     3.139728E-7
         5054.327     2.976631E-7
         5058.838     2.818833E-7
         5063.353     2.625511E-7
         5067.869     2.418797E-7
          5072.39     2.240562E-7
         5076.919     2.087729E-7
         5081.448     1.954376E-7
          5085.98     1.863888E-7
         5090.516     1.773019E-7
          5095.06     1.684340E-7
         5099.607     1.594912E-7
         5104.155     1.529787E-7
         5108.708     1.466476E-7
         5113.265     1.392738E-7
         5117.828     1.314404E-7
         5122.396     1.234725E-7
         5126.965     1.153817E-7
         5131.538     1.076994E-7
          5136.12     1.008870E-7
         5140.701     9.536661E-8
         5145.287     9.724467E-8
         5149.876     9.913510E-8
         5154.472     9.236061E-8
         5159.072     8.528973E-8
         5163.674     8.325620E-8
         5168.283     8.249543E-8
         5172.895     7.994988E-8
         5177.506     7.632816E-8
         5182.127     7.473945E-8
         5186.749     7.556979E-8
         5191.378     7.498918E-8
         5196.012     7.104810E-8
         5200.646     6.722278E-8
         5205.285     6.426428E-8
         5209.928     6.128173E-8
         5214.577     5.746644E-8
         5219.231     5.360751E-8
         5223.887     4.853833E-8
         5228.549     4.319201E-8
         5233.215     4.244288E-8
          5237.88     4.378780E-8
         5242.555     4.167842E-8
         5247.231     3.666753E-8
         5251.914     3.411878E-8
         5256.601     3.518671E-8
          5261.29     3.565560E-8
         5265.985     3.452410E-8
          5270.68     3.397219E-8
         5275.383     3.690250E-8
         5280.092     3.975673E-8
         5284.801     3.771433E-8
         5289.518     3.565479E-8
         5294.239     3.493718E-8
         5298.958     3.436931E-8
         5303.687     3.432834E-8
         5308.418     3.443740E-8
         5313.155     3.454695E-8
         5317.897     3.465681E-8
         5322.641     3.765209E-8
         5327.391     4.297833E-8
          5332.14     4.362905E-8
         5336.899     3.851547E-8
         5341.662     3.520423E-8
         5346.426     3.531421E-8
         5351.198     3.542424E-8
         5355.974     3.553399E-8
         5360.751     3.564380E-8
         5365.532     3.575371E-8
         5370.318     3.586371E-8
         5375.111     3.597341E-8
         5379.908     3.608322E-8
         5384.707     3.619358E-8
         5389.513     3.630412E-8
         5394.323     3.641429E-8
         5399.131     3.652438E-8
          5403.95     3.663472E-8
          5408.77     3.674511E-8
         5413.597     3.685567E-8
         5418.429     3.696635E-8
         5423.262     3.707671E-8
         5428.099     3.718699E-8
          5432.94     3.729738E-8
         5437.792     3.740801E-8
         5442.643     3.751861E-8
         5447.497     3.762930E-8
         5452.359     3.773989E-8
         5457.225     3.785029E-8
         5462.092     3.796075E-8
         5466.964     3.807134E-8
          5471.84     3.818178E-8
         5476.724     3.829203E-8
         5481.612     3.840236E-8
         5486.501     3.851276E-8
         5491.398     3.862332E-8
         5496.293     3.873385E-8
         5501.198     3.884270E-8
         5506.108     3.894572E-8
         5511.019     3.904873E-8
         5515.938     3.915184E-8
          5520.86     3.925499E-8
         5525.785     3.935814E-8
         5530.713     3.946127E-8
         5535.646     3.956391E-8
         5540.587     3.966660E-8
         5545.532     3.976883E-8
         5550.478     3.987107E-8
         5555.432     3.997395E-8
         5560.387     4.007677E-8
         5565.347     4.017905E-8
         5570.313     4.028145E-8
         5575.282     4.038385E-8
         5580.258     4.048630E-8
         5585.238     4.058820E-8
          5590.22     4.069006E-8
         5595.206     4.079198E-8
         5600.197     4.089232E-8
         5605.198     4.095295E-8
         5610.197     4.101355E-8
         5615.201     4.107415E-8
         5620.213     4.113481E-8
         5625.226     4.119485E-8
         5630.246     4.125495E-8
         5635.268     4.131497E-8
         5640.294     4.137501E-8
         5645.328     4.143509E-8
         5650.367     4.149521E-8
         5655.406     4.155528E-8
         5660.451     4.161539E-8
         5665.502     4.167550E-8
         5670.559     4.173557E-8
         5675.617     4.179502E-8
         5680.679     4.185449E-8
         5685.752     4.191405E-8
         5690.823     4.197354E-8
         5695.899     4.203301E-8
         5700.979     4.209248E-8
         5706.064     4.215197E-8
          5711.16     4.221156E-8
         5716.254     4.227105E-8
         5721.353     4.233056E-8
         5726.456     4.239002E-8
         5731.567     4.244956E-8
         5736.682     4.250909E-8
         5741.799     4.256837E-8
          5746.92     4.262722E-8
         5752.053     4.268638E-8
         5757.183     4.274585E-8
         5762.318     4.280534E-8
         5767.458     4.286483E-8
         5772.602     4.292399E-8
         5777.757     4.298287E-8
         5782.911     4.304204E-8
         5788.068     4.310150E-8
         5793.237     4.316060E-8
         5798.401     4.321935E-8
         5803.577     4.327864E-8
         5808.753     4.333809E-8
         5813.937     4.339703E-8
         5819.126     4.345580E-8
         5824.316     4.351510E-8
         5829.511     4.357452E-8
         5834.711     4.363329E-8
         5839.918     4.369205E-8
          5845.13     4.375146E-8
         5850.344     4.381083E-8
         5855.562     4.386944E-8
         5860.792     4.392824E-8
         5866.016     4.398754E-8
         5871.251     4.404690E-8
         5876.488     4.410617E-8
         5881.732     4.416548E-8
         5886.982     4.422477E-8
         5892.232     4.428402E-8
         5897.491     4.434329E-8
         5902.749     4.440249E-8
         5908.017     4.446173E-8
          5913.29     4.452137E-8
         5918.563     4.458124E-8
         5923.846     4.464058E-8
         5929.133     4.469972E-8
         5934.421     4.475938E-8
         5939.714     4.481915E-8
         5945.012     4.487888E-8
         5950.318     4.493865E-8
         5955.629     4.499838E-8
         5960.941     4.505817E-8
         5966.258     4.511854E-8
         5971.579     4.517867E-8
         5976.909     4.523829E-8
         5982.243     4.529820E-8
         5987.579     4.535847E-8
         5992.923     4.541874E-8
         5998.271     4.547896E-8
         6003.622     4.550560E-8
         6008.976     4.551620E-8
         6014.336     4.552729E-8
         6019.704     4.553853E-8
         6025.076     4.554972E-8
          6030.45     4.556089E-8
         6035.832     4.557198E-8
         6041.219     4.558304E-8
         6046.604     4.559402E-8
         6052.001     4.560526E-8
         6057.399     4.561694E-8
         6062.805     4.716234E-8
         6068.216     5.013334E-8
         6073.628     6.048305E-8
         6079.046     7.447855E-8
         6084.468     9.930183E-8
         6089.898     1.264904E-7
         6095.333     1.672648E-7
          6100.77     2.121576E-7
         6106.215     2.803867E-7
         6111.665     3.537178E-7
         6117.112     4.384433E-7
         6122.572     5.217925E-7
         6128.033     6.034066E-7
         6133.502     6.512682E-7
         6138.976     6.801206E-7
         6144.452     6.501363E-7
         6149.936     6.065285E-7
         6155.417     5.270267E-7
         6160.911     4.467166E-7
          6166.41     3.654318E-7
          6171.91     2.979845E-7
         6177.418     2.565887E-7
         6182.932     2.164973E-7
         6188.443     1.775993E-7
         6193.966     1.542676E-7
         6199.491     1.370754E-7
         6205.024     1.249766E-7
         6210.562     1.139578E-7
         6216.101     1.080268E-7
         6221.649     1.007165E-7
         6227.195     9.017192E-8
         6232.756     8.076277E-8
         6238.315     7.254271E-8
         6243.879     6.567740E-8
         6249.452     5.939318E-8
         6255.029     5.868400E-8
         6260.608     5.782998E-8
         6266.193     5.081744E-8
         6271.782     4.669977E-8
         6277.379     4.878825E-8
         6282.982     4.866379E-8
         6288.586     4.659126E-8
         6294.198     4.746950E-8
         6299.809     4.934294E-8
         6305.435     4.760938E-8
         6311.059     4.610076E-8
         6316.688     4.610866E-8
         6322.326     4.611656E-8
         6327.968     4.612442E-8
         6333.612     4.613225E-8
         6339.262     4.614004E-8
         6344.916     4.614711E-8
         6350.579     4.615406E-8
         6356.247     4.616103E-8
         6361.916     4.616767E-8
         6367.594     4.617376E-8
         6373.277     4.617984E-8
         6378.961     4.618591E-8
         6384.651     4.619194E-8
         6390.346     4.619790E-8
         6396.049     4.620306E-8
         6401.757     4.620795E-8
         6407.467     4.621227E-8
         6413.183     4.849597E-8
         6418.906     5.260011E-8
         6424.631     5.155289E-8
         6430.365     4.981572E-8
         6436.104     5.588628E-8
         6441.845     6.062590E-8
         6447.594     6.255453E-8
         6453.345     6.657753E-8
         6459.101     7.211146E-8
         6464.866     7.227955E-8
         6470.632     7.237572E-8
         6476.407     7.997045E-8
         6482.184     8.146372E-8
         6487.969     7.290228E-8
         6493.756     7.441066E-8
         6499.548     8.137228E-8
         6505.349     8.015471E-8
         6511.154     7.981865E-8
         6516.962     8.580332E-8
         6522.778     8.435341E-8
         6528.596     7.479843E-8
         6534.419     7.612660E-8
         6540.251     8.061837E-8
         6546.088     7.879702E-8
         6551.927     7.747487E-8
         6557.771     7.715824E-8
         6563.624     7.712843E-8
         6569.478     7.727446E-8
         6575.341     8.217952E-8
         6581.206     8.554768E-8
          6587.08     8.123832E-8
         6592.955     8.355394E-8
         6598.839     9.239923E-8
         6604.729     9.196415E-8
         6610.616     9.036764E-8
         6616.516     9.824002E-8
         6622.421     1.040010E-7
         6628.328     1.067376E-7
         6634.244     1.147964E-7
         6640.165     1.247510E-7
         6646.087     1.283825E-7
         6652.015     1.357306E-7
         6657.948     1.502876E-7
         6663.891     1.599728E-7
         6669.838     1.670799E-7
         6675.787     1.827850E-7
         6681.745     1.982862E-7
         6687.701     2.127332E-7
          6693.67     2.350879E-7
         6699.644     2.623416E-7
          6705.62     2.874912E-7
         6711.604     3.160808E-7
         6717.594     3.544852E-7
         6723.586     3.959598E-7
         6729.583     4.394654E-7
         6735.585     4.995767E-7
         6741.597     5.624156E-7
         6747.613     6.295351E-7
         6753.632     7.174775E-7
          6759.66     8.190578E-7
         6765.692     9.140005E-7
         6771.723     1.022799E-6
         6777.767     1.167997E-6
         6783.813     1.308408E-6
         6789.867     1.445985E-6
         6795.927     1.651706E-6
         6801.988     1.859567E-6
         6808.055     2.069551E-6
         6814.127     2.334039E-6
         6820.209     2.623713E-6
         6826.296     2.907852E-6
         6832.385     3.226457E-6
         6838.482     3.599360E-6
         6844.586     3.970583E-6
         6850.687     4.353722E-6
         6856.801     4.844174E-6
         6862.917     5.320525E-6
         6869.042     5.782229E-6
         6875.173     6.325354E-6
         6881.305     6.875784E-6
         6887.446     7.402857E-6
         6893.586     7.992631E-6
         6899.738     8.627553E-6
         6905.896     9.192288E-6
         6912.056     9.781267E-6
         6918.225     1.042736E-5
         6924.399     1.098808E-5
         6930.572     1.151720E-5
         6936.757     1.208877E-5
         6942.944     1.259550E-5
         6949.141     1.303177E-5
         6955.343     1.342504E-5
         6961.546     1.378453E-5
          6967.76     1.406615E-5
         6973.971     1.426076E-5
         6980.195     1.440336E-5
         6986.424     1.444621E-5
         6992.656     1.443181E-5
         6998.897     1.434063E-5
         7005.143     1.414036E-5
         7011.392     1.389319E-5
         7017.645     1.356196E-5
         7023.904     1.319354E-5
         7030.173     1.280005E-5
         7036.448     1.229544E-5
         7042.724     1.180696E-5
         7049.009     1.133792E-5
         7055.292     1.076227E-5
         7061.589     1.018729E-5
         7067.892     9.671472E-6
         7074.196     9.121303E-6
          7080.51     8.561021E-6
         7086.829     8.073768E-6
          7093.15     7.571142E-6
         7099.477     7.052806E-6
         7105.809     6.617034E-6
         7112.151     6.183212E-6
         7118.498     5.737630E-6
         7124.848     5.346863E-6
         7131.207     4.972349E-6
         7137.571     4.592536E-6
         7143.933     4.265436E-6
         7150.309     3.971235E-6
         7156.687     3.690147E-6
         7163.074     3.426757E-6
         7169.467     3.182451E-6
         7175.862     2.942966E-6
         7182.262     2.727191E-6
         7188.668     2.552971E-6
         7195.084     2.366766E-6
         7201.506     2.186245E-6
         7207.929     2.033114E-6
         7214.362     1.893546E-6
         7220.801     1.763250E-6
         7227.237     1.650997E-6
         7233.688     1.533768E-6
         7240.144     1.413693E-6
         7246.601     1.320476E-6
         7253.069     1.229726E-6
         7259.538     1.141772E-6
         7266.017     1.072153E-6
         7272.498     1.001639E-6
         7278.989     9.271994E-7
         7285.481     8.742948E-7
         7291.979     8.227808E-7
         7298.487     7.651914E-7
         7305.001     7.153008E-7
         7311.517     6.702498E-7
         7318.038     6.330654E-7
         7324.569     5.945651E-7
         7331.103     5.559974E-7
         7337.646     5.193061E-7
          7344.19     4.853338E-7
         7350.745     4.533008E-7
         7357.301     4.244119E-7
         7363.867     3.960323E-7
         7370.436     3.686253E-7
         7377.014     3.490788E-7
         7383.593     3.276580E-7
         7390.183     3.047934E-7
         7396.775     2.858627E-7
         7403.372     2.678399E-7
         7409.979     2.506703E-7
         7416.589     2.373978E-7
         7423.208     2.244648E-7
         7429.829     2.118892E-7
          7436.46     1.999690E-7
         7443.097     1.897327E-7
         7449.736     1.813847E-7
         7456.381     1.683760E-7
         7463.036     1.580173E-7
         7469.692     1.510281E-7
         7476.359     1.405700E-7
         7483.027     1.301867E-7
         7489.702     1.200767E-7
         7496.386     1.172977E-7
         7503.077     1.101383E-7
         7509.769     9.747954E-8
         7516.471     9.062479E-8
         7523.175     8.497680E-8
          7529.89     8.042096E-8
         7536.606     7.464693E-8
         7543.328     7.078632E-8
         7550.061     6.885936E-8
         7556.794     6.459316E-8
         7563.539     5.913894E-8
          7570.29     5.280643E-8
         7577.042     5.058397E-8
           7583.8     4.624462E-8
         7590.568     4.077503E-8
         7597.339     4.080362E-8
         7604.119     3.817514E-8
         7610.906     3.397595E-8
         7617.694     3.062180E-8
         7624.489     2.942129E-8
          7631.29     2.932090E-8
           7638.1     2.922057E-8
         7644.917     2.912033E-8
         7651.736     2.902024E-8
         7658.565     2.892020E-8
         7665.396     2.882035E-8
         7672.233     2.872059E-8
         7679.081     2.862085E-8
          7685.93     2.852130E-8
          7692.79     2.842179E-8
         7699.655     2.832240E-8
         7706.523     2.822318E-8
         7713.401     2.812401E-8
         7720.276     2.802507E-8
         7727.167     2.792613E-8
         7734.063     2.782728E-8
         7740.961     2.772859E-8
          7747.87     2.763002E-8
         7754.785     2.753153E-8
         7761.697     2.743327E-8
         7768.625     2.733503E-8
         7775.554     2.723696E-8
         7782.494     2.713894E-8
         7789.439     2.704105E-8
         7796.387     2.694335E-8
         7803.345     2.684571E-8
         7810.301     2.674831E-8
         7817.271     2.665091E-8
         7824.249     2.655365E-8
         7831.227     2.645659E-8
         7838.216     2.635958E-8
         7845.212     2.626273E-8
         7852.209     2.616605E-8
         7859.213     2.606949E-8
         7866.223     2.597309E-8
         7873.244     2.587676E-8
         7880.271     2.578055E-8
         7887.299     2.568458E-8
         7894.338     2.558867E-8
         7901.375     2.549301E-8
         7908.427     2.539739E-8
         7915.485     2.530192E-8
         7922.545     2.520665E-8
         7929.616     2.511143E-8
         7936.693     2.501642E-8
         7943.772     2.492159E-8
         7950.858     2.482691E-8
          7957.95     2.473241E-8
         7965.052     2.463802E-8
         7972.161     2.454374E-8
         7979.271     2.444968E-8
         7986.393     2.435577E-8
         7993.521     8.260430E-8
         8000.646     1.832703E-7
         8007.786     1.168251E-7
         8014.929     1.939966E-7
         8022.082     2.406720E-7
         8029.242     5.967472E-8
         8036.403     8.076867E-8
         8043.576     3.994996E-7
         8050.746     8.647577E-7
         8057.931     2.606997E-7
         8065.123     6.130261E-7
         8072.316     9.684596E-7
         8079.521     5.343410E-7
         8086.731     4.884594E-7
          8093.94     3.608341E-7
         8101.164     1.603614E-7
         8108.389     4.723518E-8
         8115.626     2.361748E-8
         8122.869     1.364278E-7
         8130.114     4.092979E-7
          8137.37     2.485915E-7
         8144.628     1.201496E-7
         8151.893     4.773872E-8
         8159.168     8.180533E-8
         8166.446     1.015160E-7
         8173.734     4.700505E-7
         8181.029     1.043091E-6
         8188.326     8.614261E-7
          8195.63     4.265355E-7
         8202.939     3.069689E-7
         8210.261     7.387960E-7
         8217.588     5.997865E-7
         8224.918     4.131026E-7
         8232.259     3.797979E-7
         8239.602     7.392451E-7
          8246.95     5.636601E-7
         8254.311     3.069503E-7
         8261.673     7.639238E-8
         8269.047     5.178701E-8
         8276.427     2.100361E-7
         8283.809     2.524937E-7
         8291.197     1.628103E-7
         8298.597     7.248556E-8
         8305.999     2.396343E-7
         8313.412     3.072801E-7
         8320.827     1.902166E-7
         8328.253     6.959512E-8
         8335.687     1.411534E-7
         8343.121     2.205810E-7
         8350.563     2.201270E-7
         8358.011     8.536873E-8
         8365.471     2.624953E-7
         8372.937     4.433310E-7
         8380.409     4.500241E-7
         8387.879     3.451464E-7
         8395.365     1.742290E-7
         8402.854     8.060449E-8
         8410.353     1.557319E-7
         8417.859     2.736269E-7
         8425.367     1.783551E-7
         8432.887     1.067025E-7
         8440.408     1.951810E-7
         8447.937     6.219508E-8
         8455.477     2.136388E-7
         8463.019     2.851847E-7
         8470.571     1.354822E-7
         8478.127     6.761236E-7
         8485.693     4.569628E-7
         8493.262     1.819525E-7
         8500.842     1.551093E-7
         8508.425     8.958413E-8
         8516.019     5.165261E-8
         8523.614     5.477291E-8
         8531.221     8.972113E-8
          8538.83     9.744455E-8
         8546.446     3.353071E-7
         8554.074     3.203408E-7
         8561.704     1.012891E-7
         8569.345     5.873498E-8
         8576.993     2.244847E-7
         8584.644     2.174021E-7
         8592.301     1.446524E-7
         8599.969     2.060046E-7
          8607.64     1.001145E-7
         8615.321     6.401380E-8
         8623.006     6.115184E-8
         8630.702     5.971530E-8
         8638.405     3.934300E-8
         8646.105     2.623711E-7
         8653.821     4.073739E-7
          8661.54     3.614099E-7
         8669.271     1.248586E-7
         8677.008     9.142583E-8
         8684.747     6.331054E-8
         8692.493     1.401765E-7
         8700.251     4.397302E-7
         8708.012     2.159613E-7
         8715.783     2.228091E-7
         8723.563     3.649581E-7
         8731.343     4.965079E-7
         8739.136     2.620989E-7
         8746.926     1.883769E-7
         8754.732     1.483029E-7
         8762.546     1.038475E-7
         8770.361     4.277161E-8
         8778.188     1.983706E-7
         8786.019     1.238653E-7
         8793.859     8.004639E-8
         8801.703     1.136641E-7
         8809.554     6.057479E-8
         8817.416     2.289100E-7
         8825.286     2.905955E-7
         8833.157     5.283654E-7
         8841.041     9.335422E-7
         8848.922     1.690769E-7
         8856.819     1.764053E-7
         8864.724     1.384423E-7
         8872.631     7.468628E-8
          8880.55     1.788748E-7
         8888.476     2.638372E-7
         8896.403     2.468903E-7
         8904.338     1.631439E-7
          8912.28     7.925443E-8
         8920.234     8.397844E-8
         8928.195     1.751877E-7
         8936.159     1.975446E-7
         8944.135     1.370378E-7
         8952.117     4.465250E-8
         8960.097     2.370276E-8
         8968.094     2.889475E-8
         8976.093     2.113689E-7
         8984.104     3.980259E-7
         8992.122     4.300620E-7
         9000.143     1.790840E-7
         9008.175     4.838198E-7
         9016.205     3.963030E-7
         9024.252     3.230007E-7
         9032.306     2.734559E-7
         9040.362     3.192172E-8
         9048.431     4.128958E-7
         9056.506     2.422679E-7
         9064.579     2.881751E-7
         9072.669     3.654961E-7
         9080.761     2.622274E-8
         9088.865     1.481626E-7
         9096.978     8.002278E-8
         9105.092     5.773613E-8
         9113.218     5.170339E-8
         9121.341     1.930450E-8
         9129.481     7.041918E-8
          9137.63     4.590303E-8
          9145.78     2.387053E-8
         9153.942     1.358770E-7
         9162.112     2.820753E-7
         9170.284     1.355617E-7
         9178.464     5.954591E-8
         9186.655     6.799097E-8
         9194.849     9.601996E-8
         9203.056     9.679355E-8
         9211.264     6.143942E-8
         9219.485     7.809821E-8
         9227.708     1.051840E-7
         9235.938     1.336073E-7
         9244.182     1.650932E-7
         9252.427     1.791873E-7
         9260.685     1.417834E-7
         9268.949     5.931883E-8
         9277.217     8.243310E-8
         9285.492     1.243074E-7
         9293.779     1.139481E-7
         9302.068     6.408867E-8
          9310.37     8.152552E-8
         9318.675     2.468586E-8
         9326.991     1.758698E-7
         9335.315     1.957211E-7
         9343.637     1.757575E-7
         9351.977     2.195598E-7
         9360.317     2.410018E-7
         9368.672     1.563282E-7
         9377.033     5.721266E-8
         9385.396     3.965185E-8
         9393.768     3.742757E-8
         9402.152     6.537547E-8
         9410.538     2.612267E-7
         9418.937     1.681753E-7
         9427.338     4.818014E-8
         9435.752     2.376442E-8
         9444.173     6.434338E-8
         9452.592     9.159638E-8
         9461.028     5.103275E-8
         9469.472     4.592156E-8
         9477.918     4.697919E-8
         9486.377     1.492477E-7
         9494.838     1.315797E-7
         9503.313     4.511432E-8
         9511.788     2.670943E-8
         9520.272     2.430750E-8
          9528.77     1.267228E-7
         9537.269     6.987187E-8
          9545.78     1.478558E-7
           9554.3     1.765291E-7
         9562.821     9.088704E-8
         9571.351     3.023004E-8
         9579.894     4.470165E-8
         9588.438     1.010542E-7
         9596.995     1.570455E-7
         9605.561     9.466148E-8
         9614.128     7.433950E-8
         9622.704     1.032160E-7
         9631.286     2.248340E-8
         9639.882     5.564986E-8
         9648.485     1.667443E-8
         9657.092     6.136694E-8
         9665.711     5.665052E-8
         9674.332     3.968639E-8
         9682.961     5.015700E-8
         9691.603     5.970302E-8
         9700.252     1.171861E-8
         9708.904     2.383327E-8
         9717.569     3.339449E-8
         9726.237     2.342279E-8
         9734.912     3.239755E-8
         9743.601     5.886390E-8
         9752.291     7.592392E-8
         9760.995     6.987395E-8
         9769.701     2.122022E-8
         9778.421     6.633876E-8
         9787.147     4.397520E-8
         9795.872     3.372587E-8
         9804.614     3.661572E-8
         9813.359     3.382954E-8
         9822.118     3.880459E-8
         9830.884     8.254541E-8
         9839.652     1.571994E-8
         9848.435     6.324785E-9
         9857.219     6.210156E-8
         9866.011     3.544122E-8
         9874.816     1.864673E-8
         9883.624     3.657025E-8
         9892.444     3.964557E-8
         9901.273     2.929868E-8
         9910.104     5.223735E-9
         9918.944     7.425289E-8
         9927.791     1.358904E-7
         9936.651     5.310076E-8
         9945.521     6.466938E-9
         9954.391     2.337430E-8
         9963.275     5.359125E-8
         9972.162     6.303033E-8
         9981.057     2.765401E-8
         9989.964     4.248804E-8
          9998.88     5.885401E-8
          10007.8     8.205188E-8
         10016.72     6.840227E-8
         10025.67     2.879619E-8
          10034.6     1.576486E-8
         10043.56     5.424585E-8
         10052.52     9.228587E-8
         10061.49     5.626862E-8
         10070.47     2.494131E-8
         10079.46     3.929099E-8
         10088.45     1.200860E-8
         10097.44     2.268990E-8
         10106.46     1.066563E-8
         10115.48     4.438049E-9
          10124.5     2.744567E-8
         10133.53     3.527065E-8
         10142.58     5.017362E-9
         10151.62     4.390813E-9
         10160.68     7.657026E-9
         10169.74     2.613893E-9
         10178.81     7.532731E-9
          10187.9     4.624974E-9
         10196.99     4.736552E-9
         10206.08     5.851181E-9
         10215.19     5.997871E-9
         10224.31     1.280896E-8
         10233.43     1.611210E-8
         10242.56     5.789132E-9
         10251.69     6.456680E-9
         10260.85     7.229639E-9
           10270.     1.424746E-8
         10279.16     1.143035E-8
         10288.33     2.945595E-9
         10297.51     5.028931E-9
          10306.7     4.114133E-9
         10315.89     8.577977E-9
          10325.1     9.397347E-9
          10334.3     7.707165E-9
         10343.53     9.700651E-9
         10352.76     9.012217E-9
         10361.99     8.535001E-9
         10371.25     2.824533E-8
          10380.5     3.179028E-8
         10389.76     8.590240E-9
         10399.02     3.798564E-9
          10408.3     1.696000E-9
         10417.59     3.700147E-9
         10426.89     2.153389E-9
         10436.19     7.455085E-9
         10445.49     6.140114E-9
         10454.82     1.904652E-9
         10464.15     1.588671E-9
         10473.48     2.053594E-9
         10482.82     2.225304E-9
         10492.17     1.642654E-9
         10501.54    9.687794E-10
         10510.91    7.373683E-10
         10520.29     2.066312E-9
         10529.67    4.941478E-10
         10539.07     1.984848E-9
         10548.47    7.368125E-10
         10557.88    4.916905E-10
         10567.31    3.681096E-10
         10576.73     2.659240E-9
         10586.17     2.000618E-9
         10595.61     1.719825E-9
         10605.06     2.680002E-9
         10614.53     2.588499E-9
           10624.     1.373780E-9
         10633.48     1.010948E-9
         10642.96     2.671593E-9
         10652.45     3.086050E-9
         10661.97     2.055860E-9
         10671.48     4.729894E-9
         10680.99    6.339013E-10
         10690.53    5.105291E-10
         10700.07     1.108436E-9
         10709.61     1.409210E-9
         10719.16     1.068016E-9
         10728.72     5.340639E-9
         10738.31     1.948518E-9
         10747.88     1.196429E-9
         10757.47     1.403758E-9
         10767.08     2.640524E-9
         10776.67     1.502961E-9
         10786.29     2.258322E-9
         10795.91     2.257383E-9
         10805.54     1.270885E-9
         10815.18    7.538190E-10
         10824.83    6.108922E-10
         10834.49    4.085580E-10
         10844.17    7.034175E-10
         10853.84     1.169312E-9
         10863.52    5.161443E-10
         10873.21    1.694084E-10
         10882.91    1.803732E-10
         10892.63    1.923382E-10
         10902.35    1.689942E-10
         10912.07    1.797811E-10
         10921.81    1.975466E-10
         10931.54    6.866367E-11
         10941.31    9.205835E-11
         10951.07    9.048532E-11
         10960.83    9.697599E-11
         10970.62    1.208695E-10
         10980.39    8.085135E-10
          10990.2    3.434666E-10
           11000.    1.059428E-10
