#  Table wf2f850lpsys.tab  Mon 12:21:54 02-Jun-97

#      WAVELENGTH      THROUGHPUT
#       angstroms                

            7900.              0.
          7901.31     1.066078E-6
         7902.616     2.127475E-6
         7903.926     3.190584E-6
         7905.237     4.252605E-6
         7906.543     5.309977E-6
         7907.854     6.369012E-6
         7909.166     7.427369E-6
         7910.472     8.480307E-6
         7911.784     9.536081E-6
         7913.096     1.059000E-5
         7914.403     1.163927E-5
         7915.716     1.269102E-5
         7917.028     1.374127E-5
         7918.336     1.478652E-5
         7919.649     1.583420E-5
         7920.958     1.687690E-5
         7922.271     1.792202E-5
         7923.585     1.896567E-5
         7924.895     2.000472E-5
         7926.208     2.104580E-5
         7927.523     2.208577E-5
         7928.833     2.312081E-5
         7930.147     2.415782E-5
         7931.462     2.519379E-5
         7932.773     2.622480E-5
         7934.088     2.725820E-5
         7935.404     2.829010E-5
         7936.711     2.931404E-5
         7938.031     3.034682E-5
         7939.347     3.137470E-5
         7940.659     3.239806E-5
         7941.976     3.342378E-5
         7943.289     3.444459E-5
         7944.605     3.546738E-5
         7945.923     3.648905E-5
          7947.24     3.750925E-5
         7948.554     3.852496E-5
         7949.867     3.953920E-5
         7951.189     4.055879E-5
         7952.503     4.157053E-5
         7953.822     4.258454E-5
         7955.137     4.359374E-5
         7956.451     4.460145E-5
         7957.775     4.561480E-5
          7959.09     4.661998E-5
          7960.41     4.762741E-5
         7961.729     4.863341E-5
         7963.041     4.963165E-5
         7964.365     5.063806E-5
         7965.686     5.164040E-5
         7967.002     5.263797E-5
         7968.323     5.363738E-5
          7969.64     5.463238E-5
         7970.961     5.562927E-5
         7972.283     5.662507E-5
         7973.605     5.761943E-5
         7974.923     5.860935E-5
         7976.241     5.959786E-5
         7977.567     6.059146E-5
         7978.886     6.157742E-5
         7980.209     6.256557E-5
         7981.532     6.355194E-5
         7982.847     6.453105E-5
          7984.17     6.551524E-5
         7985.499     6.650124E-5
         7986.818     6.747927E-5
         7988.142     6.845944E-5
         7989.458     6.943203E-5
         7990.783     7.040970E-5
         7992.112     7.138916E-5
         7993.433     7.236106E-5
         7994.758     7.333511E-5
         7996.079     7.430412E-5
         7997.401     7.527237E-5
         7998.731     7.624526E-5
         8000.057     7.721288E-5
         8001.379     7.815463E-5
         8002.702     7.909439E-5
         8004.029     8.003557E-5
         8005.355     8.097439E-5
         8006.683     8.191185E-5
         8008.011     8.284729E-5
          8009.33     8.377452E-5
         8010.658     8.470628E-5
          8011.99     8.563909E-5
         8013.314     8.656373E-5
         8014.643     8.748977E-5
         8015.967     8.841103E-5
         8017.292     8.933031E-5
         8018.625     9.025366E-5
         8019.955     9.117225E-5
         8021.276     9.208316E-5
         8022.606     9.299776E-5
         8023.937     9.391103E-5
         8025.267     9.482192E-5
         8026.597     9.573113E-5
         8027.919     9.663266E-5
          8029.25     9.753821E-5
         8030.582     9.844172E-5
         8031.913     9.934358E-5
         8033.245     1.002437E-4
         8034.573     1.011389E-4
           8035.9     1.020321E-4
         8037.233     1.029265E-4
          8038.57     1.038219E-4
         8039.898     1.047094E-4
         8041.227     1.055955E-4
          8042.56     1.064823E-4
         8043.889     1.073645E-4
         8045.228     1.082508E-4
         8046.561     1.091318E-4
         8047.887     1.100057E-4
         8049.221     1.108834E-4
         8050.556     1.117591E-4
         8051.891     1.126331E-4
         8053.226     1.135051E-4
         8054.556     1.143723E-4
         8055.887     1.152378E-4
         8057.223     1.161044E-4
         8058.563     1.169719E-4
         8059.895     1.178316E-4
         8061.227     1.186898E-4
         8062.563     1.195488E-4
         8063.896     1.204033E-4
         8065.238     1.212617E-4
         8066.575     1.221150E-4
         8067.903     1.229610E-4
         8069.241     1.238110E-4
         8070.579     1.246589E-4
         8071.913     1.255021E-4
         8073.255     1.263492E-4
         8074.585     1.271863E-4
         8075.924     1.280269E-4
         8077.263     1.288655E-4
         8078.598     1.296997E-4
         8079.942     1.305373E-4
         8081.277     1.313679E-4
         8082.613     1.321965E-4
         8083.953     1.330258E-4
         8085.293     1.338535E-4
         8086.634     1.346794E-4
          8087.97     1.355007E-4
         8089.311     1.363226E-4
         8090.648     1.371402E-4
         8091.989     1.379586E-4
         8093.331     1.387752E-4
         8094.668     1.395872E-4
         8096.011     1.404002E-4
         8097.353     1.412112E-4
         8098.691     1.420178E-4
         8100.034     1.428251E-4
         8101.377     1.436305E-4
         8102.716     1.444317E-4
          8104.06     1.452337E-4
         8105.398     1.460308E-4
         8106.743     1.468291E-4
         8108.086     1.476252E-4
         8109.431     1.484199E-4
         8110.771     1.492098E-4
         8112.116     1.500006E-4
         8113.457     1.507871E-4
         8114.802     1.515742E-4
         8116.147     1.523596E-4
         8117.488     1.531402E-4
         8118.834     1.539220E-4
         8120.181     1.547018E-4
         8121.522     1.554772E-4
         8122.869     1.562534E-4
         8124.216     1.570276E-4
         8125.559     1.577976E-4
         8126.906     1.585682E-4
         8128.253     1.593371E-4
         8129.597     1.601015E-4
         8130.944     1.608664E-4
         8132.292     1.616298E-4
         8133.636     1.623886E-4
         8134.985     1.631483E-4
          8136.33     1.639038E-4
         8137.679     1.646598E-4
         8139.028     1.654138E-4
         8140.377     1.661662E-4
         8141.723     1.669142E-4
         8143.072     1.676627E-4
         8144.418     1.684071E-4
         8145.769     1.691522E-4
         8147.119     1.698954E-4
         8148.465     1.706342E-4
         8149.816     1.713737E-4
         8151.168     1.721116E-4
         8152.515     1.728449E-4
         8153.867     1.735791E-4
         8155.219     1.743114E-4
         8156.566     1.750394E-4
         8157.918     1.757678E-4
         8159.271     1.764947E-4
          8160.62     1.772171E-4
         8161.973     1.779403E-4
         8163.326     1.786617E-4
         8164.675     1.793789E-4
         8166.029     1.800964E-4
         8167.378     1.808099E-4
         8168.732     1.815238E-4
         8170.087     1.822361E-4
         8171.441     1.829464E-4
         8172.792     1.836528E-4
         8174.147     1.843595E-4
         8175.498     1.850623E-4
         8176.854     1.857653E-4
         8178.209     1.864665E-4
         8179.565     1.871660E-4
         8180.917     1.878615E-4
         8182.273     1.885574E-4
         8183.625     1.892491E-4
         8184.982     1.899414E-4
         8186.339     1.906318E-4
         8187.697     1.913204E-4
          8189.05     1.920049E-4
         8190.408     1.926899E-4
         8191.761     1.933709E-4
         8193.119     1.940521E-4
         8194.478     1.947317E-4
         8195.827     1.954049E-4
         8197.191     1.960835E-4
          8198.55     1.967572E-4
         8199.905     1.974276E-4
         8201.265     1.980981E-4
          8202.62     1.987647E-4
         8203.979     1.994313E-4
          8205.34     2.000964E-4
         8206.701     2.007601E-4
         8208.057     2.014191E-4
         8209.413     2.020766E-4
         8210.779     2.027369E-4
         8212.136     2.033906E-4
         8213.497     2.040448E-4
         8214.859     2.046975E-4
         8216.213     2.053441E-4
         8217.575     2.059930E-4
         8218.941     2.066418E-4
           8220.3     2.072850E-4
         8221.663     2.079287E-4
         8223.018     2.085663E-4
         8224.381     2.092061E-4
         8225.749     2.098463E-4
         8227.112     2.104823E-4
         8228.472     2.111145E-4
         8229.832     2.117454E-4
         8231.196     2.123762E-4
         8232.562     2.130055E-4
         8233.927     2.136330E-4
         8235.292     2.142585E-4
         8236.647     2.148776E-4
         8238.014     2.154998E-4
          8239.38     2.161200E-4
         8240.746     2.167384E-4
         8242.112     2.173549E-4
          8243.47     2.179656E-4
         8244.836     2.185783E-4
         8246.203     2.191895E-4
          8247.57     2.197988E-4
         8248.938     2.204067E-4
         8250.297     2.210083E-4
         8251.665     2.216125E-4
         8253.037     2.222165E-4
         8254.401     2.228151E-4
          8255.77     2.234136E-4
         8257.135     2.240088E-4
         8258.499     2.246018E-4
         8259.873     2.251971E-4
         8261.242     2.257884E-4
         8262.607     2.263763E-4
         8263.973     2.269622E-4
         8265.343     2.275483E-4
         8266.718     2.281347E-4
         8268.084     2.287153E-4
          8269.45     2.292941E-4
         8270.817     2.298715E-4
         8272.188     2.304487E-4
         8273.564     2.310261E-4
         8274.932     2.315978E-4
           8276.3     2.321682E-4
         8277.672     2.327382E-4
         8279.044     2.333064E-4
         8280.417     2.338731E-4
          8281.79     2.344379E-4
         8283.153     2.349970E-4
         8284.527     2.355585E-4
           8285.9     2.361178E-4
         8287.274     2.366756E-4
         8288.648     2.372314E-4
         8290.014     2.377819E-4
         8291.389     2.383345E-4
         8292.764     2.388852E-4
         8294.139     2.394341E-4
         8295.514     2.399811E-4
         8296.885     2.405246E-4
         8298.256     2.410663E-4
         8299.631     2.416077E-4
         8301.012     2.421496E-4
         8302.384     2.426861E-4
         8303.756     2.432209E-4
         8305.133     2.437556E-4
         8306.505     2.442866E-4
         8307.887     2.448196E-4
         8309.265     2.453491E-4
         8310.638     2.697750E-4
         8312.011     3.216681E-4
         8313.389     3.736189E-4
         8314.768     4.254795E-4
         8316.146     4.772130E-4
         8317.521     5.286368E-4
         8318.895     5.799347E-4
         8320.274     6.318600E-4
         8321.658     6.859635E-4
         8323.029     7.394379E-4
         8324.409     7.931227E-4
         8325.789     8.466741E-4
         8327.165     8.999415E-4
         8328.551     9.534532E-4
         8329.927     0.001006455
         8331.304     0.001074959
         8332.685     0.001144364
         8334.066     0.001213645
         8335.443     0.001282508
         8336.825     0.001351443
         8338.203      0.00142001
         8339.586     0.001488646
         8340.969     0.001560201
         8342.352     0.001632893
          8343.73     0.001705197
         8345.113     0.001777522
         8346.493     0.001849512
         8347.877     0.001921521
         8349.261     0.001993347
         8350.646     0.002074178
         8352.025     0.002165032
         8353.405     0.002255784
          8354.79     0.002346757
         8356.176     0.002437692
         8357.562     0.002528525
         8358.942     0.002618937
         8360.328     0.002710432
         8361.715     0.002804677
         8363.097     0.002898484
         8364.483     0.002992516
          8365.87     0.003086441
         8367.252     0.003179929
          8368.64     0.003273706
         8370.022     0.003367458
          8371.41     0.003486491
         8372.799     0.003605471
         8374.187     0.003724231
          8375.57     0.003842521
         8376.959     0.003961089
         8378.344      0.00407919
         8379.732     0.004197484
         8381.122     0.004312131
         8382.512     0.004425786
         8383.897     0.004538989
         8385.287     0.004652378
         8386.673     0.004765313
         8388.063     0.004878513
         8389.454     0.004991577
         8390.841     0.005124039
         8392.231      0.00526963
         8393.623     0.005415151
         8395.011     0.005560091
         8396.402     0.005705265
         8397.795     0.005850369
         8399.188     0.005995295
         8400.575      0.00613773
         8401.963     0.006277435
         8403.356     0.006417561
          8404.75     0.006557515
         8406.144     0.006697298
         8407.532     0.006836421
         8408.927      0.00697596
         8410.316     0.007119179
         8411.711     0.007277497
         8413.105     0.007435618
           8414.5     0.007593544
         8415.891     0.007750833
         8417.286     0.007908475
         8418.677     0.008065375
         8420.073     0.008223087
         8421.469     0.008386827
          8422.86     0.008549905
         8424.258     0.008713462
         8425.654     0.008876701
         8427.047     0.009039273
         8428.443     0.009202096
         8429.841     0.009364827
         8431.239     0.009540443
         8432.632     0.009716761
          8434.03     0.009893596
         8435.424      0.01006959
         8436.823      0.01024609
         8438.222      0.01042224
         8439.616      0.01059767
         8441.016       0.0107736
          8442.41      0.01094873
         8443.811      0.01112436
          8445.21      0.01129964
          8446.61      0.01147481
         8448.007      0.01164927
         8449.407      0.01182397
         8450.804      0.01201055
         8452.205      0.01220684
         8453.606      0.01240288
         8455.008      0.01259865
         8456.405      0.01279362
         8457.803      0.01298832
         8459.205      0.01318344
         8460.607      0.01337298
          8462.01      0.01355529
         8463.404      0.01373634
         8464.808      0.01391828
         8466.216       0.0141006
         8467.614      0.01428141
         8469.019      0.01446273
         8470.418      0.01464912
         8471.817      0.01484921
         8473.228      0.01505055
         8474.627      0.01525009
         8476.032      0.01545018
         8477.434      0.01564944
         8478.839      0.01584898
         8480.245      0.01604648
          8481.65       0.0162346
         8483.057      0.01642259
         8484.454      0.01660914
         8485.861      0.01679673
         8487.272      0.01698457
         8488.676       0.0171711
         8490.083      0.01735883
         8491.485      0.01756071
         8492.889      0.01776244
         8494.302      0.01796529
          8495.71      0.01816714
         8497.114      0.01836814
         8498.519      0.01856885
         8499.928      0.01876996
         8501.337      0.01895414
         8502.746      0.01913714
         8504.156      0.01931999
         8505.557       0.0195013
         8506.967      0.01968359
         8508.378      0.01986573
         8509.788      0.02004746
         8511.199      0.02024439
         8512.602      0.02044249
         8514.013      0.02064152
         8515.429      0.02084094
         8516.836       0.0210388
         8518.244      0.02123651
         8519.651      0.02143376
         8521.064      0.02161663
         8522.481      0.02179481
          8523.89      0.02197162
         8525.299      0.02214826
         8526.712      0.02232511
         8528.126      0.02250179
          8529.54      0.02267819
         8530.954      0.02285936
         8532.364      0.02304216
         8533.774      0.02322466
         8535.188      0.02340736
         8536.608      0.02359053
          8538.02      0.02377227
         8539.431       0.0239537
         8540.842       0.0241229
         8542.258      0.02428432
         8543.679      0.02444602
         8545.091      0.02460644
         8546.503       0.0247666
          8547.92      0.02492703
         8549.337      0.02508719
         8550.755      0.02525282
         8552.173      0.02542312
         8553.581      0.02559196
         8554.999      0.02576167
         8556.418      0.02593122
         8557.837      0.02610047
         8559.256      0.02626942
          8560.67       0.0264291
         8562.085      0.02657929
         8563.504      0.02672962
         8564.924      0.02687978
         8566.345      0.02702977
          8567.76      0.02717887
         8569.176      0.02732782
         8570.597        0.027477
         8572.022      0.02762643
         8573.438      0.02777456
         8574.855      0.02792252
         8576.277      0.02807072
         8577.694      0.02821814
         8579.122      0.02836639
         8580.539      0.02850462
         8581.957      0.02862861
         8583.381      0.02875286
         8584.804      0.02887679
         8586.231       0.0290009
         8587.646      0.02912359
         8589.069      0.02924688
         8590.494      0.02937352
         8591.913      0.02950598
         8593.343      0.02963918
         8594.758      0.02977076
         8596.184      0.02990308
         8597.608      0.03003504
         8599.034      0.03016684
          8600.46      0.03029247
         8601.876      0.03040469
         8603.303      0.03051753
         8604.729      0.03063013
         8606.156       0.0307425
         8607.583      0.03085463
         8609.005      0.03096614
         8610.428      0.03107947
         8611.855      0.03119756
         8613.283      0.03131541
         8614.712      0.03143309
         8616.136      0.03155011
         8617.563      0.03166721
         8618.988      0.03178382
         8620.417      0.03189612
         8621.847      0.03199764
         8623.276      0.03209894
         8624.701      0.03219966
         8626.126      0.03230015
         8627.557      0.03240082
         8628.992      0.03250161
         8630.418      0.03260195
         8631.849      0.03270351
         8633.275      0.03280456
         8634.702      0.03290537
         8636.134       0.0330063
         8637.565      0.03310699
         8638.998      0.03320752
         8640.426      0.03330062
         8641.858      0.03337763
         8643.291      0.03345443
         8644.719      0.03353078
         8646.152      0.03360725
         8647.586      0.03368352
         8649.016      0.03375937
         8650.449      0.03383842
         8651.879      0.03392401
         8653.313      0.03400966
         8654.748      0.03409509
         8656.183      0.03418029
         8657.618      0.03426532
         8659.044      0.03434957
         8660.479      0.03442835
         8661.916      0.03449539
         8663.353      0.03456225
         8664.788      0.03462886
         8666.221      0.03469514
         8667.652      0.03476118
          8669.09      0.03482729
         8670.527      0.03489316
         8671.965      0.03495875
         8673.397      0.03502392
         8674.836      0.03508916
          8676.27      0.03515399
         8677.708      0.03521882
         8679.146      0.03528347
         8680.586      0.03534641
         8682.021      0.03540669
         8683.455      0.03546677
         8684.895      0.03552686
         8686.335       0.0355868
         8687.775      0.03564656
         8689.216      0.03570612
         8690.646      0.03576216
         8692.088       0.0358149
         8693.529      0.03586743
         8694.971       0.0359198
         8696.412      0.03597197
         8697.845      0.03602366
         8699.291      0.03607564
         8700.733      0.03612661
         8702.172      0.03617659
         8703.614      0.03622652
         8705.053      0.03627613
         8706.496      0.03632573
         8707.939      0.03637515
         8709.384      0.03642442
         8710.823      0.03646765
         8712.263      0.03650645
         8713.712      0.03654535
         8715.156      0.03658396
         8716.597      0.03662229
         8718.037      0.03666046
         8719.482       0.0366986
         8720.929       0.0367344
         8722.374      0.03676881
          8723.82      0.03680309
         8725.263      0.03683711
         8726.704      0.03687094
         8728.151      0.03690476
         8729.599      0.03693841
         8731.046      0.03697161
         8732.488      0.03700443
         8733.932       0.0370371
          8735.38      0.03706973
         8736.828      0.03710219
         8738.276      0.03713449
         8739.726      0.03716665
         8741.165      0.03718773
         8742.619      0.03720634
         8744.064       0.0372247
         8745.514      0.03724296
         8746.964       0.0372611
         8748.404      0.03727899
          8749.86      0.03729694
         8751.306      0.03732472
         8752.757      0.03735355
         8754.208      0.03738222
          8755.65      0.03741055
         8757.111      0.03743909
         8758.559       0.0374672
         8760.006      0.03749509
         8761.459      0.03751009
         8762.906      0.03752489
         8764.364      0.03753966
         8765.813       0.0375542
         8767.266      0.03756864
         8768.715      0.03758292
         8770.164      0.03759631
         8771.623      0.03760377
         8773.077      0.03761109
         8774.527      0.03761826
         8775.977      0.03762529
         8777.433      0.03763224
         8778.888      0.03763907
         8780.343      0.03764626
         8781.789      0.03765489
         8783.245      0.03766344
         8784.701      0.03767186
         8786.158      0.03768015
         8787.615      0.03768831
         8789.063      0.03769629
          8790.52      0.03770402
         8791.978      0.03771128
         8793.435       0.0377184
         8794.893       0.0377254
         8796.347      0.03773226
         8797.805      0.03773899
         8799.259      0.03774558
         8800.723      0.03774777
         8802.177      0.03774544
         8803.632      0.03774299
         8805.091      0.03774042
         8806.546      0.03773775
         8808.012      0.03773494
         8809.467      0.03773204
         8810.928      0.03772639
         8812.389      0.03771913
          8813.84      0.03771182
         8815.311      0.03770429
         8816.763      0.03769676
         8818.225      0.03768907
         8819.687      0.03768129
         8821.145      0.03766879
         8822.612      0.03765484
         8824.065      0.03764094
         8825.528      0.03762685
         8826.991      0.03761267
         8828.455      0.03759838
         8829.919        0.037584
         8831.378      0.03758122
         8832.837        0.037579
         8834.302      0.03757666
         8835.767      0.03757419
         8837.231       0.0375716
         8838.692      0.03756889
         8840.152      0.03756479
         8841.618      0.03754955
         8843.085      0.03753421
         8844.551      0.03751878
         8846.018      0.03750324
         8847.475      0.03748772
         8848.941      0.03747199
         8850.408      0.03745375
         8851.876      0.03742914
         8853.344      0.03740446
         8854.807      0.03737978
         8856.274      0.03735495
         8857.738       0.0373301
         8859.212      0.03730501
         8860.676      0.03728537
         8862.146      0.03727181
         8863.609      0.03725822
         8865.079      0.03724445
         8866.549      0.03723059
         8868.015      0.03721666
         8869.484       0.0372026
         8870.955      0.03718454
         8872.421      0.03716438
         8873.897      0.03714397
         8875.358      0.03712369
          8876.83      0.03710317
         8878.302      0.03708255
         8879.774      0.03706184
         8881.247       0.0370449
         8882.709      0.03702868
         8884.183      0.03701223
         8885.655      0.03699568
         8887.129      0.03697902
         8888.603      0.03696227
         8890.071      0.03694489
          8891.54      0.03691627
         8893.015      0.03688746
         8894.489      0.03685857
         8895.964      0.03682961
         8897.434      0.03680067
         8898.909      0.03677154
          8900.38       0.0367457
         8901.855      0.03672906
         8903.331      0.03671232
         8904.808      0.03669546
         8906.279      0.03667856
         8907.751      0.03666155
         8909.228      0.03664438
         8910.705      0.03662062
         8912.183      0.03658972
          8913.66      0.03655873
         8915.133      0.03652777
         8916.606      0.03649673
         8918.085      0.03646551
         8919.563      0.03643421
         8921.043      0.03640315
         8922.517      0.03637229
         8923.996      0.03634124
         8925.476       0.0363101
         8926.951      0.03627897
         8928.431      0.03624769
         8929.906      0.03621641
         8931.387      0.03618773
         8932.868      0.03615916
         8934.344       0.0361306
         8935.825      0.03610186
         8937.303       0.0360731
         8938.789      0.03604409
         8940.271      0.03601355
         8941.743      0.03597647
         8943.227      0.03593902
         8944.709      0.03590153
         8946.192      0.03586395
         8947.676      0.03582631
         8949.154      0.03578874
         8950.633       0.0357523
         8952.117      0.03571725
         8953.602      0.03568213
         8955.086      0.03564695
         8956.565      0.03561181
         8958.051      0.03557646
         8959.531      0.03554115
         8961.017      0.03550932
         8962.503      0.03547908
         8963.988      0.03544877
          8965.47      0.03541845
         8966.951      0.03538805
         8968.438      0.03535745
         8969.926      0.03532676
         8971.413       0.0352791
           8972.9      0.03523052
         8974.378      0.03518223
         8975.866      0.03513354
         8977.354      0.03508482
         8978.843      0.03503606
         8980.331      0.03499188
         8981.811       0.0349639
         8983.305      0.03493555
         8984.794      0.03490719
         8986.279      0.03487881
          8987.77      0.03485024
         8989.254      0.03482169
         8990.745      0.03478662
         8992.235      0.03474521
         8993.727      0.03470369
         8995.213      0.03466227
         8996.699      0.03462078
         8998.196      0.03457892
         8999.688      0.03453718
         9001.175      0.03449227
         9002.663      0.03444644
         9004.155      0.03440047
         9005.648      0.03435444
         9007.142      0.03430839
         9008.635      0.03426231
         9010.119      0.03421803
         9011.612      0.03419143
         9013.106      0.03416473
         9014.602      0.03413794
         9016.096      0.03411109
         9017.586      0.03408423
         9019.076      0.03405731
         9020.571      0.03402834
         9022.067      0.03399628
         9023.563      0.03396415
         9025.055      0.03393207
         9026.546      0.03389991
         9028.047      0.03386748
         9029.539      0.03383518
         9031.036      0.03379792
         9032.528      0.03375859
         9034.021      0.03371919
         9035.524      0.03367949
         9037.018      0.03363999
         9038.516      0.03360033
          9040.01      0.03356075
         9041.504      0.03352588
         9043.013      0.03349061
         9044.507      0.03345562
         9046.002      0.03342054
         9047.502      0.03338531
         9048.997      0.03335011
         9050.502      0.03331394
         9051.998      0.03327657
         9053.493      0.03323916
         9054.995      0.03320152
         9056.491      0.03316398
         9057.998      0.03312611
           9059.5      0.03308831
         9060.991      0.03304391
         9062.494      0.03299568
         9063.997      0.03294742
           9065.5      0.03289913
         9066.998      0.03285098
         9068.496      0.03280279
            9070.       0.0327544
         9071.504      0.03271855
         9073.008      0.03268264
         9074.512      0.03264667
         9076.007      0.03261084
         9077.512      0.03257474
         9079.017      0.03253855
         9080.521      0.03250029
         9082.027      0.03245816
         9083.528      0.03241611
         9085.034      0.03237389
         9086.536      0.03233173
         9088.048      0.03228924
         9089.549      0.03224701
         9091.052      0.03220477
         9092.559      0.03216239
         9094.062      0.03212008
         9095.574      0.03207744
         9097.077      0.03203503
         9098.586      0.03199242
         9100.094       0.0319501
         9101.598      0.03191261
         9103.112      0.03187478
         9104.611      0.03183729
         9106.121      0.03179947
         9107.631      0.03176158
         9109.141      0.03172363
         9110.651      0.03168151
         9112.152      0.03163425
         9113.663      0.03158666
         9115.174      0.03153902
         9116.686      0.03149133
         9118.197      0.03144361
         9119.704        0.031396
         9121.211      0.03135245
         9122.723      0.03130971
         9124.235      0.03126689
         9125.749      0.03122401
         9127.257      0.03118123
         9128.765      0.03113842
         9130.278      0.03109555
         9131.792      0.03105337
         9133.307      0.03101112
         9134.821      0.03096882
          9136.33      0.03092662
          9137.84      0.03088435
         9139.355      0.03084186
         9140.871      0.03079465
         9142.387      0.03074395
         9143.902      0.03069322
         9145.413      0.03064263
         9146.925      0.03059197
         9148.446      0.03054097
         9149.958      0.03049027
         9151.476      0.03045267
         9152.987      0.03041553
         9154.505      0.03037817
         9156.023      0.03034073
         9157.536      0.03030336
         9159.055      0.03026577
         9160.573      0.03022197
         9162.087      0.03016819
         9163.611      0.03011401
          9165.12      0.03006037
          9166.64      0.03000633
          9168.16      0.02995223
          9169.68      0.02989816
         9171.195      0.02985371
         9172.711      0.02981176
         9174.231      0.02976961
         9175.753      0.02972738
         9177.274      0.02968509
         9178.796      0.02964273
         9180.313      0.02959906
          9181.83      0.02954987
         9183.353      0.02950049
         9184.875      0.02945107
         9186.398      0.02940159
         9187.916      0.02935226
         9189.439       0.0293027
         9190.958      0.02925628
         9192.482      0.02921139
         9194.006      0.02916648
          9195.53      0.02912148
          9197.05      0.02907658
          9198.57       0.0290316
         9200.096      0.02898618
         9201.621      0.02893727
         9203.146      0.02888831
         9204.672      0.02883931
         9206.188      0.02879056
         9207.715      0.02874145
         9209.241       0.0286923
         9210.769      0.02864516
         9212.296      0.02860002
         9213.813      0.02855514
         9215.346      0.02850972
         9216.868      0.02846455
         9218.396      0.02841916
         9219.925      0.02837372
         9221.449      0.02832913
         9222.978       0.0282844
         9224.507       0.0282396
         9226.031      0.02819487
         9227.562      0.02814993
         9229.086      0.02810509
         9230.621       0.0280569
         9232.152      0.02800441
         9233.673      0.02795226
         9235.203      0.02789976
         9236.734      0.02784717
         9238.267      0.02779453
         9239.798      0.02774189
          9241.33      0.02769171
         9242.853      0.02764219
         9244.385      0.02759231
         9245.917      0.02754239
          9247.45      0.02749239
         9248.983      0.02744235
         9250.513      0.02739112
         9252.041      0.02733738
         9253.575       0.0272834
         9255.109      0.02722939
         9256.644      0.02717536
         9258.174      0.02712144
         9259.703      0.02706753
         9261.239      0.02702029
         9262.774      0.02697469
         9264.311      0.02692898
         9265.847      0.02688323
         9267.372      0.02683774
         9268.909      0.02679182
         9270.446      0.02674239
         9271.983      0.02668445
         9273.521      0.02662651
         9275.048      0.02656892
         9276.596      0.02651053
         9278.129      0.02645269
         9279.662      0.02639483
           9281.2      0.02633934
         9282.734      0.02628469
         9284.278      0.02622966
         9285.808      0.02617513
         9287.348      0.02612019
         9288.888      0.02606521
         9290.423      0.02601356
         9291.968      0.02596994
         9293.504      0.02592648
         9295.039      0.02588299
         9296.586      0.02583908
         9298.122       0.0257954
         9299.663       0.0257515
           9301.2      0.02569422
         9302.742      0.02563296
         9304.285      0.02557166
         9305.822       0.0255106
         9307.365      0.02544929
         9308.909      0.02538794
         9310.452      0.02533109
         9311.985      0.02528523
         9313.529      0.02523899
         9315.079      0.02519249
         9316.618      0.02514626
         9318.163      0.02509979
         9319.708      0.02505323
         9321.243      0.02499743
         9322.789      0.02493897
         9324.334      0.02488053
         9325.881        0.024822
         9327.427      0.02476349
         9328.968      0.02470514
         9330.515      0.02465079
         9332.057        0.024605
         9333.604      0.02455897
         9335.151      0.02451289
         9336.694      0.02446686
         9338.242       0.0244206
         9339.786      0.02437439
         9341.334      0.02431651
         9342.883      0.02425674
         9344.427      0.02419714
         9345.977       0.0241373
         9347.521      0.02407767
         9349.071      0.02401777
         9350.621      0.02396043
         9352.171      0.02390686
         9353.717      0.02385338
         9355.263      0.02379986
         9356.813      0.02374612
         9358.365      0.02369231
         9359.917      0.02363845
         9361.469      0.02358862
         9363.021      0.02353895
         9364.563      0.02348951
         9366.116      0.02343968
         9367.669      0.02338979
         9369.222      0.02333985
         9370.775      0.02328549
         9372.329      0.02322678
         9373.873      0.02316843
         9375.427      0.02310968
         9376.981      0.02305087
         9378.536      0.02299203
         9380.092      0.02293306
         9381.646      0.02287282
         9383.197      0.02281271
         9384.748       0.0227526
         9386.304      0.02269227
          9387.86       0.0226319
         9389.417       0.0225715
         9390.968      0.02251769
         9392.525      0.02246744
         9394.077      0.02241731
         9395.635      0.02236693
         9397.188      0.02231664
         9398.746      0.02226609
         9400.305      0.02221343
         9401.857      0.02215253
         9403.417      0.02209136
         9404.971       0.0220304
          9406.53      0.02196919
          9408.09      0.02190798
         9409.645      0.02184694
         9411.204      0.02179079
         9412.765      0.02173607
         9414.325       0.0216813
         9415.882      0.02162661
         9417.438      0.02157192
         9418.999      0.02151696
         9420.561      0.02146284
         9422.123      0.02141018
         9423.685      0.02135749
         9425.247      0.02130471
           9426.8       0.0212522
         9428.362      0.02119929
         9429.926       0.0211463
         9431.489      0.02108775
         9433.054      0.02102887
         9434.617         0.02097
         9436.177      0.02091124
         9437.736      0.02085245
         9439.301      0.02079345
         9440.866      0.02073514
         9442.432      0.02067742
         9443.991      0.02061988
         9445.558      0.02056205
         9447.118      0.02050439
         9448.685      0.02044648
         9450.251      0.02038825
         9451.813      0.02032865
          9453.38      0.02026887
         9454.947      0.02020903
          9456.51      0.02014935
         9458.078      0.02008942
         9459.642      0.02002965
          9461.21      0.01997558
         9462.778       0.0199232
         9464.342      0.01987091
         9465.911      0.01981835
          9467.48      0.01976572
         9469.046      0.01971314
         9470.615      0.01965764
         9472.181      0.01959801
         9473.751      0.01953817
         9475.322      0.01947825
         9476.893      0.01941835
         9478.459      0.01935855
         9480.025      0.01929869
         9481.598      0.01923578
         9483.169      0.01917289
         9484.742      0.01910992
         9486.314      0.01904697
         9487.888      0.01898397
          9489.45      0.01892138
         9491.023      0.01886233
         9492.597      0.01880538
         9494.171      0.01874835
         9495.745      0.01869126
         9497.319      0.01863412
         9498.889       0.0185771
         9500.459      0.01852423
         9502.034      0.01848149
         9503.609      0.01843876
         9505.186      0.01839601
         9506.756      0.01835344
         9508.332      0.01831071
         9509.903      0.01826814
          9511.48      0.01822416
         9513.058      0.01818013
          9514.63      0.01813624
         9516.207      0.01809224
         9517.785      0.01804823
         9519.357      0.01800441
         9520.937      0.01795955
          9522.51      0.01791431
         9524.089      0.01786892
         9525.668      0.01782356
         9527.242      0.01777836
         9528.821      0.01773305
         9530.401      0.01768864
         9531.977      0.01764699
         9533.557      0.01760522
         9535.133      0.01756356
         9536.713      0.01752182
         9538.295      0.01748003
         9539.876      0.01743827
         9541.447      0.01739523
         9543.029      0.01735179
         9544.611      0.01730836
         9546.194      0.01726493
         9547.777      0.01722151
          9549.36      0.01717811
         9550.943      0.01713724
         9552.517      0.01709832
         9554.101      0.01705913
         9555.685      0.01701994
         9557.269      0.01698074
         9558.854      0.01694153
         9560.438      0.01689909
         9562.019      0.01684845
         9563.599      0.01679786
         9565.185      0.01674715
         9566.771      0.01669648
         9568.356      0.01664588
         9569.938      0.01659549
         9571.524      0.01655444
         9573.106      0.01651391
         9574.693      0.01647326
         9576.281      0.01643259
         9577.863      0.01639208
         9579.451      0.01635142
         9581.034      0.01631097
         9582.623      0.01627041
         9584.212      0.01622985
         9585.796      0.01618943
         9587.386      0.01614886
          9588.97      0.01610845
          9590.56       0.0160665
         9592.149        0.016022
          9593.74       0.0159775
         9595.325      0.01593318
         9596.911      0.01588888
         9598.503      0.01584442
         9600.094      0.01580006
         9601.686      0.01575609
         9603.277      0.01571215
         9604.859      0.01566851
         9606.452      0.01562459
         9608.045      0.01558069
         9609.638      0.01553683
         9611.231       0.0154941
         9612.825      0.01545172
         9614.419      0.01540936
         9616.002      0.01536729
         9617.597      0.01532494
         9619.191       0.0152826
         9620.786      0.01524092
         9622.382      0.01519988
         9623.977      0.01515887
         9625.567      0.01511798
         9627.158      0.01507709
         9628.754      0.01503609
         9630.351      0.01499467
         9631.947      0.01495184
         9633.539      0.01490916
         9635.137      0.01486634
         9636.729       0.0148237
         9638.326      0.01478092
         9639.925      0.01473814
         9641.518      0.01469668
         9643.116      0.01465513
          9644.71      0.01461372
         9646.309       0.0145722
         9647.908      0.01453066
         9649.503      0.01448927
         9651.103      0.01444702
         9652.697      0.01440458
         9654.298      0.01436201
         9655.898      0.01431945
           9657.5      0.01427689
         9659.096      0.01423451
         9660.692      0.01419153
         9662.294      0.01414769
         9663.896      0.01410387
         9665.498      0.01406005
         9667.101      0.01401627
         9668.704      0.01397248
         9670.296       0.0139285
         9671.899      0.01388183
         9673.503      0.01383522
         9675.107      0.01378861
         9676.711      0.01374209
         9678.315      0.01369558
          9679.91      0.01364939
         9681.515      0.01361256
          9683.12      0.01357625
         9684.726      0.01353993
         9686.331      0.01350359
         9687.933      0.01346733
         9689.538      0.01343095
          9691.14      0.01339099
         9692.746      0.01334943
         9694.354      0.01330785
         9695.956      0.01326642
         9697.563      0.01322488
         9699.171      0.01318335
         9700.774      0.01314051
         9702.383      0.01309605
         9703.986      0.01305175
         9705.595      0.01300735
         9707.204      0.01296296
         9708.809      0.01291874
         9710.418      0.01287578
         9712.022      0.01283684
         9713.633      0.01279776
         9715.244      0.01275866
          9716.85       0.0127197
          9718.46      0.01268062
         9720.071      0.01264121
         9721.684      0.01259497
          9723.29      0.01254895
         9724.896      0.01250297
         9726.509      0.01245687
         9728.122       0.0124108
         9729.734       0.0123648
         9731.348      0.01232247
         9732.962      0.01228085
         9734.564      0.01223955
         9736.179      0.01219798
         9737.793      0.01215642
         9739.407      0.01211487
         9741.022      0.01207391
         9742.638      0.01203329
         9744.242      0.01199295
         9745.858      0.01195234
         9747.474      0.01191176
          9749.09      0.01187116
         9750.706      0.01183044
         9752.317      0.01178965
         9753.935      0.01174873
         9755.547      0.01170795
         9757.164      0.01166706
         9758.782      0.01162616
         9760.395       0.0115855
         9762.013      0.01154495
         9763.632      0.01150439
         9765.245      0.01146398
         9766.864      0.01142344
         9768.479      0.01138304
         9770.098      0.01134222
         9771.718      0.01129668
         9773.333      0.01125133
         9774.953      0.01120589
         9776.568      0.01116063
         9778.189      0.01111527
         9779.811      0.01106995
         9781.427      0.01102898
         9783.049      0.01098842
         9784.671      0.01094788
         9786.293      0.01090735
          9787.91      0.01086696
         9789.528      0.01082656
         9791.151      0.01078434
         9792.774      0.01074144
         9794.398      0.01069855
         9796.022       0.0106557
         9797.646      0.01061288
         9799.261      0.01057035
         9800.885      0.01052672
          9802.51      0.01048239
         9804.136      0.01043807
         9805.761      0.01039383
         9807.387       0.0103496
         9809.008      0.01030556
         9810.629      0.01026328
         9812.255      0.01022361
         9813.882      0.01018393
          9815.51      0.01014423
         9817.132      0.01010469
         9818.759      0.01006504
         9820.382      0.01002479
          9822.01      0.00998213
         9823.639     0.009939485
         9825.262     0.009897028
         9826.891     0.009854452
         9828.515     0.009812041
         9830.145     0.009769386
         9831.774     0.009725477
         9833.399     0.009681746
         9835.029     0.009637934
         9836.655     0.009594274
         9838.286     0.009550529
         9839.917     0.009506836
         9841.549     0.009467972
         9843.175     0.009429509
         9844.802     0.009391028
         9846.435     0.009352412
         9848.066      0.00931382
         9849.699     0.009275211
         9851.333     0.009233758
         9852.955     0.009191998
         9854.589     0.009149972
         9856.223     0.009107982
         9857.857     0.009066002
         9859.491     0.009024083
         9861.126     0.008983486
         9862.762     0.008943478
         9864.386     0.008903774
         9866.021     0.008863799
         9867.657     0.008823846
         9869.293     0.008783909
          9870.93     0.008743119
         9872.566     0.008701716
         9874.198     0.008660468
          9875.83     0.008619253
         9877.467     0.008577941
         9879.104     0.008536642
         9880.743     0.008495672
         9882.376     0.008455261
         9884.015      0.00841473
         9885.647     0.008374369
         9887.287     0.008333866
         9888.926     0.008293411
         9890.561     0.008252625
           9892.2     0.008210883
         9893.835     0.008169304
         9895.476     0.008127613
         9897.116     0.008085961
         9898.752     0.008044473
         9900.393     0.008002905
         9902.029     0.007961498
         9903.671     0.007920002
         9905.313     0.007878522
         9906.955     0.007837105
         9908.593     0.007795826
          9910.23     0.007754698
         9911.873     0.007714179
         9913.517     0.007673667
          9915.16     0.007633185
         9916.805     0.007592709
         9918.438     0.007552552
         9920.082      0.00751217
         9921.728     0.007472412
         9923.372     0.007432702
         9925.018     0.007392995
         9926.663     0.007353309
         9928.309     0.007313645
         9929.944     0.007274242
         9931.591     0.007233794
         9933.237      0.00719335
         9934.885     0.007152915
         9936.531     0.007112539
          9938.18     0.007072145
         9939.821     0.007031953
         9941.464     0.006992029
         9943.112     0.006952026
         9944.761      0.00691205
          9946.41     0.006872082
         9948.054     0.006832285
         9949.703     0.006792375
         9951.348     0.006752769
         9952.997     0.006713106
         9954.647     0.006673447
         9956.293     0.006633934
         9957.943     0.006594332
         9959.589     0.006554873
          9961.24     0.006514319
         9962.893      0.00647346
         9964.539     0.006432789
          9966.19     0.006392043
         9967.838     0.006351434
          9969.49      0.00631075
         9971.144     0.006271962
         9972.797     0.006234026
         9974.444     0.006196233
         9976.093     0.006158428
         9977.747     0.006120497
         9979.401     0.006082577
         9981.057      0.00604334
         9982.711      0.00600342
         9984.355     0.005963773
         9986.011     0.005923903
         9987.667     0.005884045
         9989.322     0.005844248
         9990.979     0.005804585
         9992.636     0.005765014
         9994.292     0.005725502
         9995.938     0.005686256
         9997.596     0.005646789
         9999.253     0.005607354
         10000.91     0.005578288
         10002.57     0.005557741
         10004.22     0.005537351
         10005.89     0.005516709
         10007.54     0.005496357
         10009.19     0.005475898
         10010.85     0.005455545
          10012.5     0.005435415
         10014.17     0.005415044
         10015.82      0.00539496
         10017.48     0.005374769
         10019.14     0.005354592
         10020.79     0.005334343
         10022.47     0.005313607
         10024.12     0.005293174
         10025.78     0.005272625
         10027.44     0.005252102
         10029.09     0.005231742
         10030.77     0.005210356
         10032.42      0.00518842
         10034.08     0.005166357
         10035.75     0.005144347
         10037.41     0.005122365
         10039.08     0.005100425
         10040.73     0.005079562
         10042.39     0.005059763
         10044.06     0.005039976
         10045.72     0.005020203
         10047.39     0.005000465
         10049.06     0.004980739
         10050.72     0.004960638
         10052.38     0.004940161
         10054.04     0.004919597
         10055.71     0.004899053
         10057.38     0.004878528
         10059.05     0.004858046
         10060.71     0.004837133
         10062.37     0.004815789
         10064.04     0.004794348
         10065.71     0.004772935
         10067.38     0.004751564
         10069.05     0.004730233
         10070.72     0.004709866
         10072.38     0.004690896
         10074.04     0.004671826
         10075.71     0.004652779
         10077.39     0.004633744
         10079.06     0.004614731
         10080.72      0.00459548
          10082.4     0.004575483
         10084.06     0.004555785
         10085.73     0.004535978
          10087.4     0.004516188
         10089.07     0.004496568
         10090.75     0.004476637
         10092.41     0.004456898
         10094.08      0.00443705
         10095.76     0.004417234
         10097.42      0.00439759
         10099.11       0.0043777
         10100.77     0.004357923
         10102.44     0.004337827
         10104.12     0.004317755
         10105.79      0.00429773
         10107.46     0.004277857
         10109.14     0.004257892
         10110.81     0.004238682
         10112.49     0.004220255
         10114.17      0.00420185
         10115.84     0.004183467
         10117.52     0.004165106
         10119.19     0.004146874
         10120.86     0.004128715
         10122.54     0.004110738
         10124.22     0.004092769
          10125.9     0.004074818
         10127.58     0.004056889
         10129.25     0.004039092
         10130.92     0.004020402
          10132.6     0.004001097
         10134.28     0.003981826
         10135.96     0.003962577
         10137.65     0.003943361
         10139.33     0.003924178
           10141.     0.003905311
         10142.68      0.00388645
         10144.36     0.003867619
         10146.04     0.003848809
         10147.72      0.00383004
          10149.4     0.003811411
         10151.08      0.00379266
         10152.76     0.003773921
         10154.43     0.003755322
         10156.13     0.003736516
          10157.8     0.003717979
         10159.49     0.003699343
         10161.17     0.003680961
         10162.84     0.003662823
         10164.54     0.003644479
         10166.21     0.003626385
          10167.9     0.003608203
         10169.58     0.003590049
         10171.27     0.003571983
         10172.96     0.003553967
         10174.63     0.003536093
         10176.32     0.003518131
         10178.01     0.003500188
          10179.7      0.00348227
         10181.38     0.003464027
         10183.07     0.003445726
         10184.76     0.003427457
         10186.44     0.003409337
         10188.13     0.003391132
         10189.82     0.003372949
          10191.5     0.003354822
         10193.19     0.003336729
         10194.88     0.003318658
         10196.58     0.003300619
         10198.25     0.003282726
         10199.95      0.00326475
         10201.64     0.003246526
         10203.33     0.003228329
         10205.02     0.003210167
          10206.7     0.003192144
         10208.39     0.003174041
         10210.09     0.003156024
         10211.78     0.003138988
         10213.47     0.003121966
         10215.15     0.003105076
         10216.85     0.003088102
         10218.54     0.003071142
         10220.24      0.00305416
         10221.93     0.003036923
         10223.61     0.003019821
         10225.31     0.003002629
           10227.     0.002985465
          10228.7     0.002968328
          10230.4     0.002951209
         10232.08     0.002934238
         10233.78     0.002917167
         10235.47     0.002900134
         10237.17     0.002883119
         10238.87     0.002866132
         10240.57     0.002848971
         10242.25     0.002831582
         10243.95     0.002814107
         10245.65     0.002796666
         10247.35     0.002779251
         10249.05     0.002761881
         10250.75     0.002744213
         10252.45     0.002726195
         10254.14     0.002708336
         10255.84     0.002690396
         10257.54       0.0026725
         10259.24     0.002654638
         10260.94     0.002637665
         10262.64     0.002621407
         10264.33     0.002605276
         10266.03     0.002589057
         10267.73     0.002572863
         10269.44     0.002556694
         10271.14     0.002539991
         10272.83     0.002523168
         10274.53     0.002506263
         10276.24     0.002489393
         10277.94     0.002472549
         10279.65      0.00245574
         10281.34     0.002439477
         10283.04     0.002423238
         10284.75     0.002407027
         10286.45     0.002390845
         10288.16      0.00237469
         10289.85     0.002358666
         10291.56     0.002342623
         10293.27     0.002326604
         10294.97     0.002310621
         10296.68     0.002294657
         10298.39     0.002278712
         10300.08     0.002262888
         10301.79     0.002246713
          10303.5     0.002230562
         10305.21     0.002214433
         10306.92     0.002198345
         10308.63     0.002182279
         10310.32     0.002166265
         10312.03     0.002149825
         10313.74     0.002133433
         10315.45      0.00211706
         10317.16     0.002100735
         10318.87     0.002084439
         10320.58     0.002068442
         10322.28     0.002053083
           10324.     0.002037636
         10325.71     0.002022216
         10327.42     0.002006823
         10329.13     0.001991456
         10330.84     0.001975976
         10332.56     0.001960392
         10334.26     0.001944935
         10335.97     0.001929412
         10337.69     0.001913912
          10339.4     0.001898443
         10341.12      0.00188292
         10342.82     0.001867495
         10344.53     0.001851997
         10346.25     0.001836532
         10347.96     0.001821091
         10349.68     0.001805684
         10351.38     0.001790633
          10353.1     0.001775569
         10354.82     0.001760525
         10356.53     0.001745509
         10358.25     0.001730522
         10359.96     0.001715656
         10361.67     0.001700329
         10363.39     0.001685019
         10365.11     0.001669753
         10366.83     0.001654514
         10368.54     0.001639413
         10370.26     0.001624281
         10371.98     0.001609441
          10373.7      0.00159463
         10375.42     0.001579849
         10377.14      0.00156509
         10378.86     0.001550369
         10380.57     0.001535643
         10382.29     0.001520618
         10384.01     0.001505621
         10385.73     0.001490662
         10387.45      0.00147574
         10389.17     0.001460846
         10390.89     0.001446303
         10392.61     0.001431883
         10394.33       0.0014175
         10396.06     0.001403137
         10397.78     0.001388803
          10399.5     0.001374498
         10401.22     0.001360124
         10402.94     0.001345607
         10404.67     0.001331117
         10406.39      0.00131667
         10408.12     0.001302248
         10409.83     0.001287959
         10411.56     0.001273577
         10413.28     0.001259228
         10415.01     0.001244914
         10416.74     0.001230635
         10418.45     0.001216479
         10420.18     0.001202262
         10421.91     0.001188093
         10423.63     0.001173958
         10425.36     0.001159849
         10427.08     0.001145871
         10428.81     0.001131824
         10430.54     0.001117892
         10432.27     0.001104146
           10434.     0.001090421
         10435.73     0.001076732
         10437.45     0.001063157
         10439.18     0.001049518
         10440.91     0.001035896
         10442.64       0.0010223
         10444.37     0.001008733
          10446.1     9.951954E-4
         10447.83     9.816869E-4
         10449.56     9.682833E-4
         10451.29     9.547418E-4
         10453.02     9.412034E-4
         10454.75     9.276896E-4
         10456.49     9.142084E-4
         10458.22     9.007596E-4
         10459.94     8.874266E-4
         10461.68     8.742697E-4
         10463.41     8.611461E-4
         10465.15     8.480399E-4
         10466.88     8.349592E-4
         10468.61     8.219919E-4
         10470.35     8.087695E-4
         10472.08     7.953475E-4
         10473.81     7.818762E-4
         10475.55     7.684391E-4
         10477.29     7.550518E-4
         10479.03     7.416987E-4
         10480.75     7.286173E-4
         10482.49     7.156564E-4
         10484.23     7.027258E-4
         10485.97     6.898256E-4
          10487.7     6.769557E-4
         10489.43     6.641955E-4
         10491.17     6.512947E-4
         10492.91     6.383873E-4
         10494.64     6.255949E-4
         10496.39     6.126716E-4
         10498.12     5.999423E-4
         10499.86     5.871690E-4
          10501.6     5.838779E-4
         10503.34     5.814231E-4
         10505.08     5.789730E-4
         10506.81     5.765424E-4
         10508.56     5.740999E-4
          10510.3     5.716473E-4
         10512.04     5.691260E-4
         10513.78     5.666115E-4
         10515.53     5.641010E-4
         10517.27     5.615943E-4
           10519.     5.591098E-4
         10520.75     5.566811E-4
         10522.49     5.543470E-4
         10524.24     5.520169E-4
         10525.98     5.496894E-4
         10527.73     5.473659E-4
         10529.46     5.450607E-4
         10531.21     5.427536E-4
         10532.95     5.404549E-4
          10534.7     5.381599E-4
         10536.45     5.358676E-4
         10538.19     5.335793E-4
         10539.93     5.313100E-4
         10541.68     5.289845E-4
         10543.42     5.266627E-4
         10545.17     5.243426E-4
         10546.92     5.220281E-4
         10548.66     5.197322E-4
         10550.41     5.173821E-4
         10552.16     5.148951E-4
         10553.91     5.124127E-4
         10555.66     5.099362E-4
         10557.39     5.074821E-4
         10559.14     5.050176E-4
         10560.89     5.026776E-4
         10562.65     5.004570E-4
          10564.4     4.982388E-4
         10566.14     4.960404E-4
         10567.89     4.938298E-4
         10569.64     4.916218E-4
         10571.39     4.892429E-4
         10573.15     4.868229E-4
          10574.9     4.844090E-4
         10576.64     4.820155E-4
          10578.4     4.796118E-4
         10580.15     4.772353E-4
          10581.9     4.750909E-4
         10583.66     4.729487E-4
         10585.41     4.708101E-4
         10587.17     4.686751E-4
         10588.91     4.665578E-4
         10590.67     4.643567E-4
         10592.42     4.620427E-4
         10594.18     4.597327E-4
         10595.94     4.574282E-4
         10597.69     4.551291E-4
         10599.44     4.528506E-4
          10601.2     4.506483E-4
         10602.95     4.484916E-4
         10604.71     4.463390E-4
         10606.47     4.441905E-4
         10608.22     4.420592E-4
         10609.98     4.399177E-4
         10611.74     4.378213E-4
         10613.49     4.357304E-4
         10615.25     4.336421E-4
           10617.     4.315701E-4
         10618.76     4.294893E-4
         10620.52     4.273399E-4
         10622.29     4.250265E-4
         10624.05     4.227205E-4
          10625.8     4.204347E-4
         10627.56     4.181398E-4
         10629.32     4.158509E-4
         10631.08     4.136979E-4
         10632.84     4.116318E-4
         10634.61     4.095694E-4
         10636.36     4.075237E-4
         10638.12     4.054682E-4
         10639.89     4.034166E-4
         10641.65     4.013283E-4
         10643.42     3.992428E-4
         10645.18     3.971606E-4
         10646.93     3.950954E-4
          10648.7     3.930208E-4
         10650.46     3.909511E-4
         10652.23     3.888867E-4
           10654.     3.868269E-4
         10655.76     3.847701E-4
         10657.53     3.827167E-4
         10659.29     3.806826E-4
         10661.05     3.786116E-4
         10662.82     3.765276E-4
         10664.59     3.744485E-4
         10666.36     3.723731E-4
         10668.13     3.703026E-4
         10669.89     3.682369E-4
         10671.65     3.660675E-4
         10673.42     3.638819E-4
         10675.19     3.617026E-4
         10676.96     3.595298E-4
         10678.73     3.573620E-4
         10680.49     3.552873E-4
         10682.26     3.533917E-4
         10684.03     3.515005E-4
          10685.8     3.496116E-4
         10687.58     3.477250E-4
         10689.33     3.458554E-4
         10691.11     3.438730E-4
         10692.88     3.418342E-4
         10694.65     3.397994E-4
         10696.43     3.377711E-4
         10698.19     3.357592E-4
         10699.96     3.337403E-4
         10701.74     3.317662E-4
         10703.51     3.297978E-4
         10705.29     3.278342E-4
         10707.05     3.258884E-4
         10708.82     3.239332E-4
          10710.6     3.219708E-4
         10712.38     3.199926E-4
         10714.15     3.180185E-4
         10715.93     3.160496E-4
         10717.69     3.140990E-4
         10719.47     3.121393E-4
         10721.25     3.102586E-4
         10723.02     3.084133E-4
          10724.8     3.065709E-4
         10726.58     3.047324E-4
         10728.36     3.028978E-4
         10730.13     3.010755E-4
         10731.91     2.991944E-4
         10733.68     2.973178E-4
         10735.46     2.954448E-4
         10737.25     2.935765E-4
         10739.03     2.917128E-4
         10740.79     2.898934E-4
         10742.57     2.881000E-4
         10744.36     2.863095E-4
         10746.14     2.845218E-4
         10747.92     2.827391E-4
         10749.69     2.809707E-4
         10751.47     2.791525E-4
         10753.25     2.773299E-4
         10755.04     2.755107E-4
         10756.82     2.736962E-4
         10758.59     2.718980E-4
         10760.38     2.700826E-4
         10762.16     2.682389E-4
         10763.94     2.664002E-4
         10765.73     2.645657E-4
          10767.5     2.627482E-4
         10769.29     2.609238E-4
         10771.07     2.590892E-4
         10772.86     2.572486E-4
         10774.65     2.554136E-4
         10776.43     2.535839E-4
         10778.21     2.517708E-4
         10779.99     2.499510E-4
         10781.78     2.481925E-4
         10783.57     2.464379E-4
         10785.36     2.446879E-4
         10787.15     2.429426E-4
         10788.93     2.412020E-4
         10790.71     2.394649E-4
          10792.5     2.377036E-4
         10794.29     2.359465E-4
         10796.08     2.341954E-4
         10797.87     2.324486E-4
         10799.66     2.307058E-4
         10801.44     2.289924E-4
         10803.23     2.272746E-4
         10805.02     2.255616E-4
         10806.81     2.238526E-4
          10808.6     2.221484E-4
          10810.4     2.204578E-4
         10812.18     2.188128E-4
         10813.97     2.171603E-4
         10815.76     2.155121E-4
         10817.56     2.138682E-4
         10819.35     2.122277E-4
         10821.13     2.106053E-4
         10822.93     2.089782E-4
         10824.72     2.073554E-4
         10826.51     2.057359E-4
         10828.31     2.041207E-4
         10830.09     2.025110E-4
         10831.89     2.007448E-4
         10833.69     1.989855E-4
         10835.48     1.972331E-4
         10837.28     1.954865E-4
         10839.06     1.937580E-4
         10840.86     1.920980E-4
         10842.66     1.905222E-4
         10844.46     1.889498E-4
         10846.25     1.873809E-4
         10848.05     1.858170E-4
         10849.84     1.842668E-4
         10851.64     1.826799E-4
         10853.44     1.810949E-4
         10855.24     1.795139E-4
         10857.04     1.779377E-4
         10858.84     1.763665E-4
         10860.64     1.747952E-4
         10862.43     1.732317E-4
         10864.23     1.716631E-4
         10866.03     1.700987E-4
         10867.83     1.685394E-4
         10869.63     1.669851E-4
         10871.43     1.654619E-4
         10873.22     1.639589E-4
         10875.03     1.624505E-4
         10876.83     1.609466E-4
         10878.63     1.594464E-4
         10880.44     1.579474E-4
         10882.24     1.564422E-4
         10884.03     1.549522E-4
         10885.84     1.534564E-4
         10887.64     1.519654E-4
         10889.45     1.504783E-4
         10891.25     1.490169E-4
         10893.05     1.475789E-4
         10894.85     1.461342E-4
         10896.66     1.446937E-4
         10898.47     1.432573E-4
         10900.27     1.418126E-4
         10902.07     1.403120E-4
         10903.88     1.388074E-4
         10905.69     1.373088E-4
         10907.49     1.358152E-4
          10909.3     1.343283E-4
          10911.1     1.328921E-4
         10912.91     1.314735E-4
         10914.72     1.300595E-4
         10916.53     1.286502E-4
         10918.34     1.272455E-4
         10920.15     1.258427E-4
         10921.95     1.244316E-4
         10923.76     1.230165E-4
         10925.57     1.216057E-4
         10927.38     1.202002E-4
         10929.19     1.187998E-4
           10931.     1.173991E-4
         10932.82     1.159999E-4
         10934.62     1.146150E-4
         10936.43     1.132264E-4
         10938.24     1.118425E-4
         10940.06     1.104642E-4
         10941.87     1.090989E-4
         10943.69     1.077386E-4
         10945.49     1.063930E-4
          10947.3     1.050424E-4
         10949.12     1.036976E-4
         10950.93     1.023733E-4
         10952.75     1.010679E-4
         10954.56     9.976763E-5
         10956.37     9.847936E-5
         10958.19     9.718708E-5
           10960.     9.589845E-5
         10961.82     9.459438E-5
         10963.63     9.330433E-5
         10965.44     9.200941E-5
         10967.26     9.071940E-5
         10969.08     8.943436E-5
          10970.9     8.816175E-5
         10972.72     8.690072E-5
         10974.54     8.564420E-5
         10976.34     8.440025E-5
         10978.16     8.315273E-5
         10979.98     8.190904E-5
          10981.8     8.063788E-5
         10983.63     7.937128E-5
         10985.45     7.811021E-5
         10987.26     7.686272E-5
         10989.08     7.561267E-5
          10990.9     7.438425E-5
         10992.72     7.317771E-5
         10994.54     7.197559E-5
         10996.36     7.078497E-5
         10998.18     6.959102E-5
           11000.     6.840344E-5
