#  Table wf2f336wsys.tab  Mon 12:21:39 02-Jun-97

#      WAVELENGTH      THROUGHPUT
#       angstroms                

            2890.    4.800595E-10
         2891.934     3.822867E-9
         2893.866     2.211224E-8
         2895.804     5.313019E-8
         2897.742     1.076778E-7
         2899.679     2.627451E-7
         2901.618     5.214723E-7
         2903.559     8.003271E-7
         2905.501     1.078812E-6
         2907.445     1.356925E-6
         2909.389     1.634595E-6
         2911.335     3.220178E-6
         2913.283     5.401300E-6
         2915.233     7.581308E-6
         2917.181     9.754192E-6
         2919.133     1.192566E-5
         2921.083     1.668271E-5
         2923.039     2.351732E-5
         2924.996     3.034126E-5
         2926.951     3.714343E-5
         2928.908     4.394081E-5
         2930.867     5.504933E-5
         2932.826     7.156564E-5
          2934.79     8.807981E-5
         2936.753     1.045568E-4
         2938.717     1.210067E-4
         2940.683     1.236402E-4
          2942.65     1.140600E-4
         2944.616     1.346547E-4
         2946.587     1.607800E-4
         2948.558     1.886730E-4
         2950.529     2.197450E-4
         2952.504     2.520335E-4
         2954.479     2.883651E-4
         2956.455     3.273525E-4
         2958.433     3.692524E-4
         2960.412     4.146071E-4
          2962.39     4.639354E-4
         2964.373     5.186328E-4
         2966.358     5.744916E-4
          2968.34     6.365195E-4
         2970.326     7.005114E-4
         2972.313     7.682660E-4
         2974.299     8.409920E-4
          2976.29     9.166459E-4
         2978.279     9.968373E-4
         2980.273     0.001082316
         2982.266     0.001171992
          2984.26     0.001265034
         2986.257     0.001361833
         2988.255     0.001462736
         2990.252     0.001566511
         2992.254     0.001674848
         2994.255     0.001781553
         2996.258     0.001891616
         2998.262     0.002003744
         3000.268     0.002120684
         3002.273     0.002238679
         3004.281     0.002356057
         3006.292      0.00247633
         3008.303       0.0026005
         3010.315     0.002726754
         3012.329     0.002856055
         3014.342     0.002982736
         3016.358     0.003112201
         3018.377     0.003249901
         3020.396     0.003393327
         3022.417     0.003538062
         3024.438     0.003689597
         3026.459     0.003851945
         3028.485     0.004018907
         3030.511     0.004188594
         3032.537     0.004366353
         3034.567     0.004562624
         3036.595     0.004775505
         3038.627     0.005001111
          3040.66     0.005237896
         3042.692     0.005485988
         3044.727     0.005747153
         3046.764     0.006033203
         3048.803     0.006345846
         3050.843     0.006682698
         3052.883     0.007042656
         3054.924     0.007423699
         3056.967     0.007829283
         3059.013     0.008268245
         3061.058     0.008739385
         3063.107     0.009243137
         3065.156     0.009780736
         3067.205       0.0103493
         3069.258      0.01095187
         3071.311      0.01158866
         3073.364      0.01225122
         3075.419      0.01293586
         3077.478      0.01364061
         3079.536      0.01436128
         3081.596      0.01509907
         3083.657      0.01584893
         3085.718      0.01658883
         3087.782      0.01731111
         3089.849      0.01802005
         3091.916      0.01869841
         3093.984      0.01934608
         3096.054      0.01995508
         3098.123      0.02051937
         3100.197      0.02103683
         3102.269      0.02155465
         3104.344      0.02201968
         3106.422      0.02243102
         3108.498       0.0227952
         3110.579      0.02311406
          3112.66       0.0233922
          3114.74      0.02363846
         3116.823      0.02386009
          3118.91      0.02405844
         3120.996      0.02422356
         3123.083      0.02435792
         3125.173      0.02447797
         3127.261      0.02460258
         3129.353      0.02473767
         3131.448      0.02487445
         3133.541      0.02500507
         3135.638      0.02512035
         3137.736      0.02523879
         3139.833        0.025383
         3141.935      0.02553215
         3144.036      0.02567518
         3146.137      0.02582333
         3148.244       0.0260074
         3150.349      0.02619086
         3152.455      0.02635531
         3154.565      0.02652958
         3156.674      0.02671771
         3158.785      0.02691945
         3160.898      0.02713379
         3163.012      0.02734808
         3165.129      0.02756616
         3167.247      0.02777836
         3169.363      0.02797186
         3171.483      0.02816434
         3173.605      0.02837127
         3175.727      0.02857317
         3177.852      0.02873774
         3179.979      0.02890752
         3182.104      0.02908123
         3184.233      0.02924617
         3186.363      0.02940526
         3188.494       0.0295382
         3190.626      0.02966093
         3192.762      0.02979339
         3194.896      0.02992147
         3197.033      0.03003352
         3199.173      0.03013951
         3201.312      0.03025198
         3203.453      0.03036273
         3205.594      0.03045649
          3207.74      0.03054085
         3209.887      0.03062259
         3212.034      0.03070171
         3214.181      0.03077273
         3216.331      0.03085063
          3218.48      0.03092451
         3220.635      0.03099411
         3222.791      0.03106212
         3224.945      0.03113984
         3227.102      0.03121598
          3229.26      0.03126852
          3231.42      0.03132957
         3233.582      0.03141362
         3235.745       0.0315003
         3237.909      0.03157235
         3240.075      0.03163211
         3242.244       0.0316952
         3244.411       0.0317792
         3246.581      0.03186375
         3248.752      0.03193139
         3250.925      0.03199708
         3253.102      0.03207713
         3255.278      0.03215894
         3257.453      0.03220492
         3259.632      0.03223545
         3261.811      0.03227153
         3263.994      0.03231091
         3266.177       0.0323511
         3268.364      0.03237522
         3270.548      0.03242131
         3272.736        0.032474
         3274.925       0.0325123
         3277.115      0.03253093
         3279.307      0.03254655
         3281.499      0.03257245
         3283.696       0.0326032
         3285.894      0.03262462
          3288.09      0.03262539
         3290.289       0.0326458
          3292.49      0.03266934
         3294.691      0.03268727
         3296.896      0.03269295
         3299.103      0.03267857
         3301.308      0.03265654
         3303.516      0.03264875
         3305.724      0.03266097
         3307.937      0.03266601
          3310.15      0.03266872
         3312.364      0.03266344
         3314.579       0.0326638
         3316.796      0.03266149
         3319.017      0.03264917
         3321.235      0.03263978
         3323.457      0.03263137
         3325.678      0.03262158
         3327.904      0.03261149
         3330.132      0.03261152
         3332.359      0.03262238
         3334.586      0.03263149
         3336.817        0.032633
         3339.047      0.03263628
         3341.282      0.03263739
         3343.517      0.03264281
         3345.753      0.03266926
         3347.991      0.03268395
         3350.231      0.03268737
          3352.47      0.03270948
         3354.714      0.03273791
         3356.958      0.03276051
         3359.203      0.03278173
          3361.45      0.03280151
         3363.699      0.03282928
         3365.948      0.03287264
           3368.2      0.03291958
         3370.453      0.03295794
         3372.706      0.03299128
         3374.963      0.03303418
         3377.223      0.03308851
          3379.48      0.03313619
          3381.74      0.03319779
         3384.002      0.03326885
         3386.264      0.03331428
         3388.529      0.03337687
         3390.799      0.03345449
         3393.065      0.03354441
         3395.335      0.03363611
         3397.604      0.03370043
         3399.876      0.03373399
         3402.153      0.03380548
         3404.426      0.03389691
         3406.705       0.0340013
         3408.984      0.03409478
         3411.262      0.03419359
         3413.546      0.03430071
         3415.827      0.03440424
         3418.112      0.03449661
         3420.398      0.03459518
         3422.688      0.03469116
         3424.978      0.03478004
         3427.268      0.03487045
         3429.561      0.03496368
         3431.853      0.03505819
         3434.148      0.03514488
         3436.445      0.03522088
         3438.746      0.03528989
         3441.046        0.035355
         3443.346      0.03541786
         3445.649      0.03546967
         3447.956      0.03551301
          3450.26      0.03553557
         3452.568      0.03555171
         3454.879      0.03555544
         3457.188      0.03554623
         3459.502      0.03552448
         3461.816      0.03547952
          3464.13      0.03542822
         3466.447      0.03537183
         3468.768      0.03529704
          3471.09      0.03520477
         3473.409      0.03509215
         3475.733      0.03494898
         3478.056      0.03479441
         3480.382      0.03462724
         3482.712      0.03444031
          3485.04      0.03422813
         3487.373        0.034003
         3489.703      0.03375937
         3492.038      0.03349468
         3494.375      0.03321121
         3496.711      0.03290774
          3499.05      0.03258469
         3501.392      0.03224458
         3503.734      0.03189482
         3506.077       0.0315236
         3508.423      0.03113549
         3510.767      0.03074175
         3513.116      0.03033501
         3515.466      0.02991819
         3517.817        0.029492
         3520.172      0.02906427
         3522.526      0.02862944
         3524.881      0.02817286
         3527.238      0.02771571
           3529.6      0.02725983
         3531.958      0.02680073
         3534.321      0.02633993
         3536.687      0.02587144
         3539.051      0.02540086
          3541.42      0.02495688
         3543.789      0.02451056
         3546.157      0.02403725
         3548.529      0.02356281
         3550.905      0.02310625
          3553.28      0.02265188
         3555.656      0.02218796
         3558.035      0.02172233
         3560.413      0.02126098
         3562.794      0.02079944
         3565.177      0.02034393
         3567.562      0.01988529
          3569.95      0.01942782
         3572.336       0.0189871
         3574.725      0.01854636
         3577.118      0.01809747
         3579.509      0.01765738
         3581.903      0.01722063
         3584.301      0.01678298
         3586.697      0.01634571
         3589.096      0.01591205
         3591.496        0.015485
         3593.899      0.01505853
         3596.302      0.01463384
         3598.708      0.01422046
         3601.115      0.01380852
         3603.524      0.01339609
         3605.936      0.01298141
         3608.346       0.0125705
          3610.76      0.01216497
         3613.175      0.01176271
         3615.592       0.0113611
         3618.012      0.01097124
          3620.43       0.0105879
         3622.852      0.01020903
         3625.275     0.009838066
           3627.7     0.009472417
         3630.126     0.009112981
         3632.554     0.008767634
         3634.986      0.00843092
         3637.416      0.00810247
         3639.849     0.007782102
         3642.283     0.007470632
         3644.719     0.007170989
         3647.157     0.006880346
         3649.597     0.006594978
         3652.038     0.006320628
         3654.483     0.006058579
         3656.925     0.005800874
         3659.371     0.005551014
         3661.819     0.005311148
         3664.268     0.005079004
         3666.719     0.004855549
         3669.174     0.004640417
         3671.626     0.004436276
         3674.082     0.004236706
         3676.539     0.004045488
         3678.999     0.003863601
         3681.459     0.003688604
         3683.922     0.003531225
         3686.386     0.003374302
         3688.852     0.003220574
         3691.321     0.003075035
         3693.788     0.002935551
         3696.259     0.002805418
         3698.731     0.002681229
         3701.205     0.002562056
         3703.683     0.002444777
         3706.158      0.00233644
         3708.637     0.002230152
         3711.118     0.002128578
           3713.6      0.00203275
         3716.084     0.001941254
          3718.57     0.001854439
         3721.057     0.001770912
         3723.546     0.001692295
         3726.036     0.001614532
         3728.529     0.001539961
         3731.023     0.001469249
         3733.518      0.00140004
         3736.016     0.001335923
         3738.514     0.001274958
         3741.017     0.001216667
         3743.517     0.001159826
         3746.021     0.001102741
         3748.527     0.001045467
         3751.034     9.941884E-4
         3753.543     9.515695E-4
         3756.054     9.088014E-4
         3758.566     8.658876E-4
          3761.08     8.233892E-4
         3763.596     7.814840E-4
         3766.114     7.394410E-4
         3768.633     6.972558E-4
         3771.155     6.599677E-4
         3773.676     6.286177E-4
           3776.2     5.971367E-4
         3778.726     5.655486E-4
         3781.253     5.344502E-4
         3783.782     5.038488E-4
         3786.313     4.731470E-4
         3788.846     4.423387E-4
         3791.382     4.159765E-4
         3793.916     3.933885E-4
         3796.454     3.707072E-4
         3798.993     3.479497E-4
         3801.534     3.258899E-4
         3804.077     3.042683E-4
         3806.622     2.825739E-4
         3809.168     2.608066E-4
         3811.716     2.433185E-4
         3814.265     2.278875E-4
         3816.816     2.124048E-4
         3819.367     1.968822E-4
         3821.924     1.823826E-4
          3824.48     1.682076E-4
         3827.039     1.539841E-4
         3829.599     1.397147E-4
          3832.16     1.292692E-4
         3834.723     1.195098E-4
         3837.288     1.097179E-4
         3839.853     9.990187E-5
         3842.423     9.134603E-5
         3844.993     8.284878E-5
         3847.565     7.432252E-5
         3850.139     6.593860E-5
         3852.714     6.050841E-5
         3855.289     5.506441E-5
          3857.87     4.959366E-5
          3860.45     4.429533E-5
         3863.032     3.986284E-5
         3865.616     3.541540E-5
         3868.202     3.095339E-5
         3870.787     2.703630E-5
         3873.379     2.437331E-5
         3875.969     2.170387E-5
         3878.562     1.902568E-5
         3881.156     1.665364E-5
         3883.752     1.466624E-5
          3886.35     1.267219E-5
         3888.949     1.067185E-5
         3891.551     9.217774E-6
         3894.154     8.134299E-6
         3896.759     7.047301E-6
         3899.365     5.956775E-6
         3901.973     5.140505E-6
         3904.583     4.411173E-6
         3907.193     3.680035E-6
         3909.806     2.945924E-6
         3912.423     2.567424E-6
          3915.04     2.216707E-6
         3917.659     1.864832E-6
          3920.28     1.526302E-6
           3922.9     1.307996E-6
         3925.526     1.088648E-6
         3928.151     8.687658E-7
         3930.777     6.886899E-7
         3933.408     6.040624E-7
         3936.039     5.192285E-7
         3938.672     4.341248E-7
         3941.306     3.657944E-7
         3943.943     3.145941E-7
         3946.578     2.632804E-7
          3949.22     2.117199E-7
         3951.862     1.844435E-7
         3954.505     1.673234E-7
          3957.15     1.501480E-7
         3959.795     1.329345E-7
         3962.444     1.156490E-7
         3965.096     9.829537E-8
         3967.746     8.091683E-8
         3970.402     6.611400E-8
         3973.058     6.619442E-8
         3975.716     6.627493E-8
         3978.375     6.635555E-8
         3981.036     6.643597E-8
         3983.697     6.651598E-8
         3986.363     6.659620E-8
          3989.03     6.667650E-8
         3991.698     6.675608E-8
         3994.368     6.683530E-8
          3997.04     6.691461E-8
         3999.711     6.699398E-8
         4002.386     6.699530E-8
         4005.066     6.698711E-8
         4007.745     6.697888E-8
         4010.425     6.697054E-8
         4013.108     6.696150E-8
          4015.79     6.695246E-8
         4018.478     6.694337E-8
         4021.164     6.693391E-8
         4023.856     6.692396E-8
         4026.547     6.691400E-8
          4029.24     6.690399E-8
         4031.936     6.689346E-8
          4034.63     6.688268E-8
         4037.329     6.687184E-8
         4040.029     6.686098E-8
         4042.734     6.684933E-8
         4045.438     6.683767E-8
         4048.142     6.682598E-8
         4050.852     6.681401E-8
         4053.561     6.680149E-8
          4056.27     6.678894E-8
         4058.986     6.677635E-8
         4061.701     6.676330E-8
         4064.417     6.674993E-8
         4067.136     6.673654E-8
         4069.856     6.672312E-8
         4072.579     6.670894E-8
         4075.298     6.669472E-8
         4078.029     6.668041E-8
         4080.756     6.666590E-8
         4083.486     6.665085E-8
         4086.217     6.663578E-8
         4088.948     6.662066E-8
         4091.685     6.660541E-8
          4094.42     6.659010E-8
         4097.159     6.657472E-8
         4099.901     6.655932E-8
         4102.642     6.654265E-8
         4105.388     6.652588E-8
         4108.134     6.650911E-8
         4110.879     6.649224E-8
         4113.631     6.647524E-8
         4116.383     6.645821E-8
         4119.136     6.644117E-8
         4121.892     6.642321E-8
         4124.648     6.640485E-8
         4127.408     6.638643E-8
         4130.164     6.636801E-8
         4132.931     6.634934E-8
         4135.693     6.633069E-8
         4138.461     6.631197E-8
          4141.23     6.629317E-8
         4143.998     6.627429E-8
         4146.771     6.625535E-8
         4149.543     6.623642E-8
         4152.318     6.621635E-8
         4155.098     6.619602E-8
         4157.875     6.617570E-8
         4160.659     6.615528E-8
         4163.441     6.613478E-8
         4166.224     6.611426E-8
         4169.011     6.609371E-8
         4171.797     6.607265E-8
          4174.59     6.605128E-8
         4177.384     6.602988E-8
         4180.179     6.600843E-8
         4182.975     6.598689E-8
         4185.768     6.596535E-8
         4188.572     6.594369E-8
         4191.372     6.592174E-8
         4194.178     6.589935E-8
         4196.983     6.587697E-8
         4199.788     6.585455E-8
         4202.599     6.589465E-8
         4205.406     6.593977E-8
         4208.221     6.598502E-8
         4211.036     6.603027E-8
         4213.853     6.607550E-8
         4216.673     6.612078E-8
         4219.492     6.616607E-8
         4222.314     6.621084E-8
         4225.138     6.625553E-8
         4227.962     6.630022E-8
         4230.792     6.634501E-8
         4233.622     6.638974E-8
         4236.456     6.643454E-8
          4239.29     6.647935E-8
         4242.121     6.652363E-8
         4244.963     6.656791E-8
         4247.797     6.661212E-8
         4250.639     6.665639E-8
         4253.487     6.670073E-8
          4256.33     6.674500E-8
         4259.179     6.678938E-8
         4262.023     6.683318E-8
         4264.876     6.687692E-8
         4267.729     6.692068E-8
         4270.581     6.696442E-8
          4273.44     6.700822E-8
         4276.298     6.705204E-8
         4279.159     6.709590E-8
         4282.021     5.357047E-8
         4284.885     3.436217E-8
         4287.751     1.511924E-8
         4290.619     4.164906E-9
         4293.491     2.350017E-8
         4296.363     4.286030E-8
         4299.234     6.223871E-8
         4302.113     6.744187E-8
         4304.985     6.748455E-8
         4307.865     6.752735E-8
         4310.747     6.757017E-8
         4313.635     6.761301E-8
          4316.52     6.765585E-8
         4319.402     6.769862E-8
         4322.296     6.774152E-8
         4325.185     6.778433E-8
         4328.076     6.782722E-8
         4330.973     6.126540E-8
          4333.87     4.162989E-8
         4336.771     2.194301E-8
         4339.669     2.247814E-9
         4342.572     1.750203E-8
         4345.479     3.730639E-8
         4348.381     5.709543E-8
         4351.292     6.816816E-8
         4354.205     6.821000E-8
         4357.115     6.825179E-8
         4360.032     6.807695E-8
         4362.943     4.822230E-8
         4365.864     2.828294E-8
         4368.782     8.335471E-9
         4371.709              0.
         4374.633              0.
         4377.554              0.
         4380.487     3.342379E-9
         4383.415     2.343440E-8
         4386.344     4.356776E-8
         4389.278     6.375597E-8
         4392.217     6.875657E-8
         4395.157     6.879799E-8
         4398.094     6.883938E-8
         4401.036     6.553559E-8
          4403.98     5.606465E-8
         4406.923     4.658368E-8
         4409.873     3.707062E-8
          4412.82     3.636286E-8
         4415.774     3.605027E-8
         4418.728     3.573733E-8
         4421.681     3.542404E-8
         4424.642     3.510957E-8
         4427.599     3.479505E-8
          4430.56     3.447961E-8
         4433.528     3.416275E-8
         4436.489     3.384628E-8
         4439.461     3.352822E-8
         4442.428     3.321054E-8
         4445.397     3.289226E-8
         4448.371     3.257310E-8
         4451.346     3.225323E-8
         4454.324     3.193253E-8
         4457.303     3.161121E-8
         4460.287     3.128904E-8
         4463.271     3.096649E-8
         4466.253     3.064359E-8
         4469.243     3.031956E-8
         4472.232     2.999515E-8
         4475.224     2.967005E-8
         4478.217     2.934440E-8
          4481.21     2.901834E-8
          4484.21     2.869119E-8
         4487.207     2.836391E-8
         4490.208     2.803574E-8
         4493.212     2.770693E-8
         4496.217     2.737750E-8
         4499.229     2.704692E-8
         4502.234     2.698389E-8
         4505.246     2.701275E-8
         4508.259     2.704132E-8
         4511.274     2.706950E-8
         4514.292     2.709726E-8
         4517.312     2.712473E-8
         4520.335     2.715194E-8
         4523.359     2.717903E-8
         4526.382     2.720580E-8
         4529.413     2.723232E-8
         4532.439     2.725832E-8
         4535.471     2.728402E-8
         4538.507     2.730944E-8
         4541.543     2.733453E-8
         4544.581     2.735931E-8
         4547.618     2.738379E-8
          4550.66     2.740803E-8
         4553.704     2.743215E-8
          4556.75     2.745597E-8
         4559.803     2.747952E-8
         4562.848     2.750249E-8
         4565.899     2.752517E-8
         4568.954     2.754757E-8
          4572.01     2.756964E-8
         4575.068     2.759140E-8
         4578.128     2.761286E-8
         4581.193     2.763404E-8
         4584.257     2.765488E-8
         4587.321     2.767541E-8
         4590.392     2.769566E-8
         4593.459     2.771553E-8
         4596.532     2.773512E-8
         4599.606     2.775441E-8
         4602.686     2.771688E-8
         4605.764     2.767043E-8
         4608.842     2.762329E-8
         4611.928     2.757533E-8
          4615.01     2.752672E-8
         4618.097     2.747736E-8
         4621.186     2.742715E-8
         4624.277     2.737605E-8
         4627.373     2.732419E-8
         4630.465     2.727171E-8
         4633.563     2.721870E-8
         4636.662     2.716495E-8
         4639.763     2.711047E-8
         4642.867     2.705522E-8
         4645.975     2.699918E-8
          4649.08     2.694250E-8
         4652.192     2.688496E-8
         4655.301     2.682676E-8
         4658.415     2.676778E-8
         4661.531     2.670794E-8
         4664.651     2.664719E-8
         4667.771     2.658574E-8
         4670.891     2.652365E-8
         4674.018     2.646085E-8
         4677.142     2.639742E-8
          4680.27     2.633317E-8
         4683.401     2.626817E-8
         4686.533     2.620243E-8
          4689.67     2.613586E-8
         4692.805     2.606838E-8
         4695.944     2.600006E-8
         4699.085     2.593096E-8
         4702.228     2.586967E-8
         4705.373     2.581118E-8
         4708.523     2.575194E-8
          4711.67     2.569197E-8
         4714.821     2.563114E-8
         4717.975     2.556959E-8
         4721.131     2.550743E-8
         4724.289     2.544473E-8
         4727.449     2.538131E-8
         4730.613     2.531709E-8
         4733.775     2.525204E-8
         4736.944     2.518617E-8
          4740.11     2.511970E-8
          4743.28     2.505269E-8
         4746.453     2.498494E-8
         4749.628     2.491649E-8
         4752.805     2.484712E-8
         4755.984     2.477699E-8
         4759.165     2.470616E-8
         4762.348     2.463473E-8
         4765.534     2.456263E-8
         4768.721     2.448980E-8
         4771.911     2.441624E-8
         4775.103     2.434196E-8
         4778.297     2.426693E-8
         4781.493     2.419106E-8
         4784.691     2.411432E-8
         4787.892     2.403685E-8
         4791.094     2.395872E-8
         4794.299     2.388002E-8
         4797.505     2.380058E-8
         4800.717     2.370698E-8
         4803.926     2.356632E-8
         4807.139     2.342443E-8
         4810.354     2.328144E-8
         4813.572     2.313717E-8
         4816.792     2.299180E-8
         4820.014     2.284531E-8
         4823.237     2.269798E-8
         4826.463     2.254952E-8
         4829.692     2.239996E-8
         4832.922     2.224931E-8
         4836.155     2.209754E-8
          4839.39     2.194469E-8
         4842.627     2.179068E-8
         4845.866     2.163555E-8
         4849.107     2.147932E-8
         4852.351     2.132181E-8
         4855.596     2.116310E-8
         4858.844     2.100325E-8
         4862.094     2.084245E-8
         4865.349     2.068048E-8
         4868.601     2.051766E-8
         4871.857     2.035351E-8
         4875.116     2.018824E-8
         4878.377     2.002179E-8
          4881.64     1.985424E-8
         4884.905     1.968551E-8
         4888.175     1.951552E-8
         4891.442     1.934468E-8
         4894.714     1.917253E-8
         4897.988     1.899924E-8
         4901.264     1.888147E-8
         4904.542     1.885335E-8
         4907.823     1.882488E-8
         4911.105     1.879599E-8
         4914.391     1.876663E-8
         4917.678     1.873691E-8
         4920.967     1.870682E-8
         4924.259     1.867637E-8
         4927.552     1.864555E-8
         4930.848     1.861436E-8
         4934.146     1.858280E-8
         4937.447     1.855087E-8
          4940.75     1.851861E-8
         4944.054     1.848613E-8
         4947.361     1.845328E-8
         4950.667     1.842008E-8
         4953.981     1.838645E-8
         4957.295     1.835247E-8
         4960.611     1.831808E-8
         4963.929     1.828317E-8
          4967.25     1.824787E-8
         4970.572     1.821224E-8
         4973.896     1.817634E-8
         4977.224     1.814007E-8
         4980.553     1.810342E-8
         4983.884     1.806641E-8
         4987.218     1.802903E-8
         4990.554     1.799126E-8
         4993.892     1.795310E-8
         4997.232     1.791456E-8
         5000.575     1.789962E-8
         5003.919     1.800024E-8
         5007.267     1.810124E-8
         5010.616     1.820258E-8
         5013.967     1.830425E-8
         5017.318     1.840621E-8
         5020.677     1.850872E-8
         5024.035     1.861169E-8
         5027.396     1.871503E-8
         5030.758     1.881870E-8
         5034.123     1.892258E-8
         5037.491     1.902684E-8
         5040.857     1.913140E-8
         5044.232     1.923662E-8
         5047.605     1.934210E-8
         5050.982     1.944793E-8
          5054.36     1.955399E-8
         5057.741     1.966043E-8
         5061.124     1.976729E-8
         5064.509     1.987463E-8
         5067.894     1.998226E-8
         5071.287     2.009047E-8
         5074.679     2.019897E-8
         5078.073     2.030783E-8
          5081.47     2.041697E-8
         5084.866     2.052626E-8
          5088.27     2.063608E-8
         5091.673     2.074633E-8
         5095.079     2.085708E-8
         5098.487     2.096822E-8
         5101.897     2.108907E-8
          5105.31     2.121783E-8
         5108.725     2.134707E-8
         5112.142     2.147683E-8
         5115.562     2.160709E-8
         5118.983     2.173781E-8
         5122.407     2.186901E-8
         5125.833     2.200068E-8
         5129.262     2.213282E-8
         5132.693     2.226532E-8
         5136.126     2.239826E-8
         5139.562     2.253169E-8
         5142.996     2.266565E-8
         5146.439     2.280036E-8
         5149.881     2.293545E-8
         5153.326     2.307109E-8
         5156.773     2.320721E-8
         5160.222     2.334383E-8
         5163.674     2.348090E-8
         5167.128     2.361848E-8
         5170.584     2.375655E-8
         5174.042     2.389516E-8
           5177.5     2.403416E-8
         5180.966     2.417380E-8
         5184.432     2.431364E-8
           5187.9     2.445396E-8
          5191.37     2.459486E-8
         5194.842     2.473644E-8
         5198.317     2.487852E-8
         5201.794     2.492608E-8
         5205.273     2.488417E-8
         5208.755     2.484173E-8
         5212.236     2.479892E-8
         5215.726     2.475559E-8
         5219.214     2.471175E-8
         5222.705     2.466718E-8
         5226.199     2.462199E-8
         5229.694     2.457627E-8
         5233.192     2.452998E-8
         5236.692     2.448315E-8
         5240.195     2.443576E-8
           5243.7     2.438781E-8
         5247.205     2.433934E-8
         5250.718     2.429029E-8
         5254.229     2.424094E-8
         5257.744     2.419102E-8
         5261.261     2.414036E-8
         5264.777     2.408883E-8
         5268.302     2.403667E-8
         5271.825     2.398412E-8
         5275.352     2.393114E-8
          5278.88     2.387758E-8
         5282.408     2.382351E-8
         5285.944     2.376878E-8
          5289.48     2.371353E-8
         5293.018     2.365748E-8
         5296.559     2.360082E-8
         5300.099     2.354175E-8
         5303.646     2.341561E-8
         5307.194     2.328862E-8
         5310.744     2.316074E-8
         5314.293     2.303220E-8
         5317.848     2.290260E-8
         5321.408     2.277176E-8
         5324.967     2.263980E-8
         5328.529     2.250690E-8
         5332.093     2.237316E-8
         5335.657     2.223862E-8
         5339.229     2.210291E-8
           5342.8     2.196636E-8
         5346.374     2.182883E-8
         5349.947     2.169045E-8
         5353.525     2.155080E-8
         5357.109     2.141006E-8
         5360.689     2.126858E-8
         5364.275     2.112595E-8
         5367.866     2.098224E-8
         5371.454     2.083770E-8
         5375.049     2.069186E-8
         5378.642     2.054528E-8
         5382.242     2.039758E-8
         5385.839     2.024919E-8
         5389.442     2.009970E-8
          5393.05     1.994890E-8
         5396.654     1.979734E-8
         5400.264     1.964882E-8
         5403.879     1.955234E-8
          5407.49     1.945534E-8
          5411.11     1.935746E-8
         5414.727     1.925905E-8
         5418.352     1.915977E-8
         5421.976     1.905976E-8
         5425.596     1.895911E-8
         5429.231     1.885742E-8
          5432.86     1.875529E-8
         5436.494     1.865236E-8
         5440.133     1.854863E-8
         5443.772     1.844428E-8
         5447.413     1.833922E-8
         5451.054     1.823348E-8
         5454.703     1.812669E-8
         5458.352     1.801928E-8
            5462.     1.791126E-8
         5465.656     1.780235E-8
         5469.309     1.769290E-8
         5472.967     1.758246E-8
         5476.628     1.747127E-8
         5480.294     1.735928E-8
          5483.96     1.724665E-8
         5487.622     1.713351E-8
         5491.298     1.701925E-8
         5494.971     1.690447E-8
         5498.644     1.678903E-8
         5502.325     1.675563E-8
         5506.002     1.677041E-8
         5509.685     1.678511E-8
         5513.371     1.679969E-8
         5517.061     1.681420E-8
         5520.751     1.682863E-8
         5524.438     1.684296E-8
         5528.139     1.685727E-8
         5531.837     1.687137E-8
         5535.534     1.688530E-8
          5539.24     1.689917E-8
         5542.942     1.691279E-8
         5546.652     1.692633E-8
         5550.359     1.693978E-8
         5554.075     1.695334E-8
          5557.79     1.696682E-8
         5561.501     1.698012E-8
         5565.228     1.699327E-8
          5568.95     1.700632E-8
         5572.672     1.701929E-8
         5576.402     1.703220E-8
         5580.129     1.704501E-8
         5583.865     1.705756E-8
         5587.597     1.707002E-8
         5591.334     1.708241E-8
         5595.074     1.709473E-8
         5598.813     1.710695E-8
         5602.562     1.718454E-8
         5606.309     1.729256E-8
         5610.062     1.740095E-8
         5613.808     1.750931E-8
         5617.566     1.761823E-8
         5621.327     1.772730E-8
         5625.083     1.783629E-8
         5628.846     1.794563E-8
         5632.614     1.805535E-8
         5636.375     1.816507E-8
         5640.146     1.827523E-8
         5643.918     1.838561E-8
         5647.696     1.849632E-8
         5651.474     1.860723E-8
         5655.254     1.871845E-8
         5659.037     1.882992E-8
         5662.825     1.894173E-8
         5666.607     1.905354E-8
           5670.4     1.916586E-8
         5674.193     1.927807E-8
         5677.988     1.939056E-8
         5681.786     1.950333E-8
          5685.59     1.961651E-8
         5689.387     1.972966E-8
         5693.192     1.984317E-8
            5697.     1.995695E-8
         5700.814     2.008415E-8
         5704.627     2.025971E-8
         5708.443     2.043572E-8
         5712.264     2.061229E-8
         5716.079     2.078886E-8
         5719.902     2.096616E-8
         5723.728     2.114382E-8
          5727.56     2.132204E-8
         5731.391     2.150059E-8
         5735.228     2.167977E-8
         5739.063     2.185921E-8
         5742.896     2.203857E-8
         5746.737     2.221858E-8
         5750.584     2.239921E-8
         5754.431     2.258037E-8
          5758.28     2.276198E-8
         5762.131     2.294404E-8
         5765.982     2.312638E-8
         5769.839     2.330933E-8
         5773.699     2.349236E-8
         5777.561     2.367581E-8
         5781.428     2.385997E-8
         5785.295     2.404463E-8
         5789.165     2.422973E-8
         5793.034     2.441483E-8
         5796.909     2.460044E-8
         5800.786     2.480577E-8
         5804.669     2.508779E-8
         5808.552     2.537027E-8
         5812.438     2.565321E-8
         5816.325     2.593669E-8
         5820.212     2.622066E-8
         5824.105     2.650585E-8
         5828.001     2.679172E-8
         5831.902     2.707839E-8
         5835.803     2.736536E-8
         5839.707     2.765301E-8
         5843.609     2.794150E-8
         5847.518     2.823096E-8
          5851.43     2.852100E-8
         5855.343     2.881139E-8
         5859.263     2.910277E-8
         5863.182     2.939486E-8
         5867.104     2.968776E-8
         5871.025     2.998112E-8
         5874.952     3.027538E-8
         5878.882     3.057037E-8
         5882.814     3.086609E-8
         5886.752     3.116281E-8
          5890.69     3.145998E-8
          5894.63     3.175777E-8
          5898.57     3.205608E-8
         5902.515     3.225173E-8
         5906.463     3.238883E-8
         5910.414     3.252629E-8
         5914.371     3.266451E-8
         5918.327     3.280291E-8
         5922.285     3.294129E-8
         5926.243     3.307964E-8
         5930.207     3.321842E-8
         5934.174     3.335788E-8
         5938.143     3.349764E-8
         5942.118     3.363778E-8
         5946.093     3.377809E-8
         5950.066     3.391854E-8
         5954.046     3.405931E-8
         5958.029     3.420037E-8
         5962.014     3.434194E-8
         5966.002     3.448402E-8
         5969.996     3.462654E-8
         5973.989     3.476867E-8
         5977.982     3.491099E-8
          5981.98     3.505393E-8
         5985.981     3.519739E-8
         5989.985     3.534115E-8
         5993.995     3.548527E-8
         5998.004     3.562957E-8
         6002.017     3.562894E-8
         6006.028     3.548464E-8
         6010.045     3.534008E-8
         6014.065     3.519579E-8
         6018.088     3.505134E-8
         6022.113     3.490668E-8
         6026.145     3.476172E-8
         6030.172     3.461684E-8
         6034.206     3.447167E-8
         6038.242     3.432636E-8
         6042.281     3.418085E-8
         6046.322     3.403517E-8
          6050.37     3.388926E-8
         6054.417     3.374357E-8
         6058.463     3.359785E-8
         6062.516     3.345159E-8
          6066.57     3.330506E-8
         6070.628     3.315840E-8
         6074.689     3.301192E-8
         6078.752     3.286530E-8
         6082.821     3.271829E-8
         6086.887     3.257132E-8
         6090.958     3.242409E-8
         6095.032     3.227673E-8
         6099.109     3.212921E-8
         6103.188     3.196336E-8
         6107.274     3.179209E-8
         6111.356     3.162091E-8
         6115.444     3.144938E-8
         6119.534     3.127768E-8
         6123.627     3.110583E-8
         6127.724     3.093380E-8
         6131.822     3.076153E-8
         6135.927     3.058890E-8
         6140.028     3.041633E-8
         6144.135     3.024381E-8
         6148.245     3.007111E-8
         6152.357     2.989798E-8
         6156.472     2.972448E-8
          6160.59     2.955082E-8
         6164.711     2.937700E-8
         6168.834     2.920302E-8
          6172.96     2.902877E-8
         6177.089     2.885432E-8
         6181.221     2.867966E-8
         6185.355     2.850481E-8
         6189.493     2.832976E-8
         6193.633     2.815457E-8
         6197.776     2.797920E-8
         6201.921     2.795490E-8
         6206.069     2.810577E-8
         6210.221     2.825679E-8
         6214.375     2.840759E-8
         6218.531     2.855853E-8
         6222.691     2.870990E-8
         6226.853     2.886156E-8
         6231.018     2.901325E-8
         6235.186     2.916471E-8
         6239.356     2.931634E-8
          6243.53     2.946841E-8
         6247.706     2.962069E-8
         6251.885     2.977297E-8
         6256.066     2.992521E-8
         6260.251     3.007758E-8
         6264.438     3.022964E-8
         6268.629     3.038184E-8
         6272.822     3.053447E-8
         6277.018     3.068738E-8
         6281.216     3.084029E-8
         6285.417     3.099304E-8
         6289.622     3.114592E-8
         6293.829     3.129890E-8
         6298.039     3.145204E-8
         6302.251     3.167435E-8
         6306.466     3.195712E-8
         6310.685     3.224010E-8
         6314.906     3.252306E-8
          6319.13     3.280629E-8
         6323.356     3.308967E-8
         6327.586     3.337328E-8
         6331.818     3.365715E-8
         6336.054     3.394128E-8
         6340.292     3.422560E-8
         6344.533     3.450977E-8
         6348.776     3.479416E-8
         6353.023     3.507882E-8
         6357.272     3.536373E-8
         6361.524     3.564867E-8
          6365.78     3.593359E-8
         6370.038     3.621872E-8
         6374.298     3.650410E-8
         6378.562     3.678973E-8
         6382.829     3.707558E-8
         6387.098     3.736167E-8
          6391.37     3.764781E-8
         6395.645     3.793383E-8
         6399.923     3.822009E-8
         6404.204     3.845218E-8
         6408.487     3.868340E-8
         6412.774     3.891483E-8
         6417.063     3.914645E-8
         6421.355     3.937804E-8
         6425.651     3.960949E-8
         6429.949     3.984107E-8
          6434.25     4.007272E-8
         6438.553     4.030453E-8
          6442.86     4.053624E-8
         6447.169     4.076797E-8
         6451.482     4.099985E-8
         6455.797     4.123191E-8
         6460.115     4.146407E-8
         6464.437     4.169535E-8
          6468.76     4.192676E-8
         6473.087     4.215831E-8
         6477.417     4.239003E-8
          6481.75     4.262187E-8
         6486.085     4.285384E-8
         6490.423     4.308586E-8
         6494.765     4.331702E-8
         6499.109     4.354831E-8
         6503.456     4.404057E-8
         6507.806     4.459923E-8
         6512.159     4.515667E-8
         6516.515     4.571279E-8
         6520.874     4.626785E-8
         6525.235     4.682135E-8
           6529.6     4.737383E-8
         6533.967     4.792475E-8
         6538.338     4.847463E-8
         6542.711     4.902352E-8
         6547.087     4.957131E-8
         6551.467     5.011788E-8
         6555.849     5.066286E-8
         6560.234     5.120683E-8
         6564.622     5.174988E-8
         6569.013     5.229179E-8
         6573.407     5.283155E-8
         6577.804     5.336990E-8
         6582.203     5.390748E-8
         6586.606     5.444444E-8
         6591.012     5.498014E-8
          6595.42     5.551426E-8
         6599.832     5.604725E-8
         6604.247     5.717883E-8
         6608.664     5.833174E-8
         6613.084     5.948202E-8
         6617.507     6.062977E-8
         6621.934     6.177569E-8
         6626.363     6.291965E-8
         6630.795     6.406099E-8
          6635.23     6.519862E-8
         6639.669     6.633400E-8
          6644.11     6.746789E-8
         6648.554     6.859961E-8
         6653.001     6.972758E-8
         6657.451     7.085263E-8
         6661.904     7.197572E-8
          6666.36     7.309703E-8
         6670.819     7.421575E-8
         6675.281     7.533138E-8
         6679.746     7.644455E-8
         6684.214     7.755541E-8
         6688.685     7.866371E-8
         6693.159     7.976898E-8
         6697.636     8.087135E-8
         6702.116     1.000300E-7
         6706.599     1.393155E-7
         6711.084     1.873246E-7
         6715.574     2.628376E-7
         6720.065     3.381873E-7
         6724.561     4.133908E-7
         6729.058     4.884308E-7
         6733.559     5.633175E-7
         6738.063     6.380448E-7
         6742.566     7.125582E-7
          6747.08     7.870347E-7
         6751.593     8.878947E-7
         6756.109     1.037234E-6
         6760.628     1.196724E-6
          6765.15     1.420613E-6
         6769.675     1.643994E-6
           6774.2     1.936374E-6
         6778.734     2.233991E-6
         6783.269     2.584758E-6
         6787.806     2.955661E-6
         6792.346     3.325795E-6
         6796.889     3.695081E-6
         6801.436     4.134395E-6
         6805.981     4.725613E-6
         6810.538     5.325289E-6
         6815.093     5.988905E-6
         6819.651     6.651122E-6
         6824.213     7.586972E-6
         6828.777     8.543492E-6
         6833.341     9.497179E-6
         6837.912     1.044955E-5
         6842.489     1.164294E-5
         6847.066     1.303595E-5
         6851.646     1.445232E-5
         6856.229     1.591313E-5
         6860.815     1.744951E-5
           6865.4     1.934567E-5
         6869.996     2.124051E-5
         6874.591     2.320374E-5
          6879.19     2.516276E-5
         6883.791     2.760310E-5
         6888.396     3.014189E-5
         6893.003     3.262692E-5
          6897.61     3.507882E-5
         6902.224     3.784574E-5
         6906.844     4.095100E-5
         6911.464     4.400009E-5
         6916.087     4.694270E-5
         6920.713     4.996877E-5
         6925.342     5.348329E-5
          6929.97     5.698701E-5
         6934.609     6.012597E-5
         6939.248     6.325296E-5
          6943.89     6.680006E-5
         6948.534     7.042135E-5
         6953.182     7.373482E-5
         6957.829     7.690067E-5
         6962.483     8.029481E-5
         6967.144     8.388797E-5
         6971.804     8.732948E-5
         6976.467     9.054084E-5
         6981.134     9.383261E-5
         6985.803     9.739093E-5
         6990.472     1.009088E-4
         6995.148     1.041612E-4
         6999.827     1.074056E-4
         7004.513     1.111178E-4
         7009.198     1.148298E-4
         7013.886     1.182871E-4
         7018.578     1.216805E-4
         7023.268     1.255575E-4
         7027.966     1.296397E-4
         7032.671     1.335069E-4
         7037.375     1.372015E-4
         7042.082     1.409430E-4
         7046.792     1.447470E-4
         7051.502     1.487597E-4
         7056.218     1.532432E-4
         7060.938     1.576239E-4
         7065.661     1.616471E-4
         7070.391     1.656915E-4
          7075.12     1.701035E-4
         7079.853     1.744972E-4
         7084.584     1.782575E-4
         7089.323     1.819850E-4
         7094.065     1.859991E-4
         7098.814     1.900498E-4
         7103.563     1.935570E-4
         7108.313     1.968747E-4
         7113.068     2.002683E-4
         7117.822     2.036934E-4
         7122.583     2.065800E-4
         7127.347     2.090109E-4
         7132.119     2.114342E-4
         7136.889     2.138461E-4
         7141.663     2.158860E-4
         7146.432     2.172405E-4
         7151.216     2.185570E-4
         7155.999     2.197661E-4
         7160.786     2.208678E-4
          7165.58     2.214506E-4
         7170.372     2.219973E-4
         7175.168     2.221667E-4
         7179.964     2.223336E-4
         7184.766     2.218221E-4
         7189.572     2.213057E-4
         7194.381     2.203003E-4
         7199.197     2.192484E-4
         7204.013     2.180317E-4
         7208.831     2.167845E-4
         7213.645     2.152891E-4
         7218.474     2.137128E-4
         7223.302     2.119160E-4
         7228.134     2.100202E-4
         7232.973     2.077987E-4
         7237.811     2.053796E-4
         7242.644     2.030470E-4
         7247.492     2.007785E-4
          7252.34     1.981990E-4
         7257.191     1.952866E-4
         7262.045     1.924397E-4
         7266.907     1.896773E-4
         7271.768     1.867842E-4
         7276.624     1.836575E-4
         7281.495     1.805335E-4
         7286.365     1.774216E-4
         7291.239     1.742548E-4
         7296.116     1.709070E-4
            7301.     1.676086E-4
         7305.883     1.644806E-4
         7310.762     1.612983E-4
         7315.656     1.577389E-4
         7320.549     1.542171E-4
         7325.446     1.508785E-4
          7330.35     1.475267E-4
         7335.253     1.438931E-4
         7340.151     1.402889E-4
         7345.061     1.370038E-4
         7349.978     1.337282E-4
         7354.894     1.300221E-4
         7359.814     1.263275E-4
         7364.737     1.232016E-4
         7369.667     1.201066E-4
         7374.588     1.165563E-4
         7379.521     1.129788E-4
         7384.461     1.098149E-4
           7389.4     1.067086E-4
         7394.343     1.033373E-4
         7399.293     9.993761E-5
         7404.242     9.687887E-5
         7409.187     9.389081E-5
         7414.143     9.069857E-5
         7419.105     8.747516E-5
         7424.068     8.462642E-5
         7429.034     8.186753E-5
         7434.007     7.891719E-5
         7438.971     7.593803E-5
         7443.947     7.325959E-5
         7448.926     7.066844E-5
         7453.913     6.794065E-5
         7458.898     6.518602E-5
         7463.888     6.273024E-5
         7468.884     6.036367E-5
         7473.872     5.791704E-5
         7478.871     5.544881E-5
         7483.877     5.327299E-5
         7488.883     5.119008E-5
         7493.893     4.897390E-5
         7498.905     4.672595E-5
         7503.921     4.481814E-5
         7508.936     4.301162E-5
         7513.958     4.106786E-5
         7518.989     3.909184E-5
         7524.018     3.736653E-5
         7529.051     3.570874E-5
         7534.086     3.400913E-5
          7539.13     3.230352E-5
         7544.165     3.085660E-5
         7549.211     2.946470E-5
         7554.265     2.802710E-5
         7559.317     2.658737E-5
         7564.374     2.530786E-5
         7569.433     2.405769E-5
         7574.492     2.281370E-5
         7579.559     2.157393E-5
         7584.633     2.060794E-5
         7589.706     1.967243E-5
         7594.782     1.863015E-5
         7599.862     1.758536E-5
         7604.946     1.671596E-5
         7610.028     1.585604E-5
         7615.119     1.505707E-5
         7620.212     1.426390E-5
         7625.313     1.352927E-5
         7630.414     1.280305E-5
         7635.518     1.213323E-5
         7640.625     1.148036E-5
         7645.731     1.093203E-5
         7650.846     1.037606E-5
         7655.967     9.774069E-6
         7661.088     9.211759E-6
         7666.212     8.787116E-6
          7671.34     8.349365E-6
         7676.467     7.871798E-6
         7681.602     7.431431E-6
          7686.74     7.071204E-6
         7691.886     6.712206E-6
         7697.031     6.355091E-6
         7702.179     6.023453E-6
         7707.331     5.725785E-6
         7712.482     5.429680E-6
         7717.641     5.134636E-6
         7722.803     4.871322E-6
         7727.973     4.634538E-6
         7733.142     4.399003E-6
         7738.314     4.164495E-6
          7743.49     3.968548E-6
         7748.666     3.791674E-6
         7753.849     3.615439E-6
         7759.035     3.440007E-6
         7764.229     3.265203E-6
         7769.422     3.091335E-6
         7774.619     2.918257E-6
         7779.815     2.746109E-6
         7785.019     2.627346E-6
         7790.226     2.511070E-6
         7795.437     2.395311E-6
         7800.655     2.279991E-6
         7805.873     2.165287E-6
         7811.094     2.051108E-6
         7816.314     1.937551E-6
         7821.543     1.840325E-6
         7826.774     1.781483E-6
          7832.01     1.722900E-6
         7837.252     1.664539E-6
         7842.495     1.606486E-6
         7847.741     1.548695E-6
         7852.985     1.491220E-6
         7858.238     1.433956E-6
         7863.494     1.341717E-6
         7868.754     1.232171E-6
         7874.021     1.203740E-6
         7879.289     1.200385E-6
         7884.554     1.151607E-6
         7889.828     1.095924E-6
         7895.105     9.938161E-7
         7900.386     8.963987E-7
         7905.675     8.723303E-7
         7910.963     8.483932E-7
         7916.254     8.245659E-7
         7921.545     8.008648E-7
         7926.844     7.772562E-7
         7932.146     7.537554E-7
         7937.452     7.303653E-7
         7942.761     7.070847E-7
         7948.078     6.838922E-7
         7953.394     6.608312E-7
          7958.71     6.378941E-7
         7964.033     6.150503E-7
          7969.36     5.923134E-7
         7974.691     5.696857E-7
         7980.025     5.471663E-7
         7985.367     5.247397E-7
         7990.704     5.024559E-7
         7996.048     4.802624E-7
         8001.397     4.610394E-7
         8006.749     4.500060E-7
         8012.104     4.390438E-7
         8017.468     4.281426E-7
         8022.831     4.173220E-7
         8028.193     4.065789E-7
         8033.563     3.958992E-7
         8038.936     3.852892E-7
         8044.313     3.747502E-7
         8049.694     3.642806E-7
         8055.078     3.538819E-7
          8060.47     3.435453E-7
         8065.857     3.332952E-7
         8071.252     3.231068E-7
         8076.651     3.129878E-7
         8082.054     3.029392E-7
         8087.459     2.929614E-7
         8092.874     2.830449E-7
         8098.287     2.732066E-7
         8103.699     2.665023E-7
         8109.119     2.612493E-7
         8114.543     2.560306E-7
         8119.971     2.508461E-7
         8125.402     2.456956E-7
         8130.837     2.405788E-7
         8136.276     2.354966E-7
         8141.718     2.304484E-7
         8147.164     2.254332E-7
         8152.613     2.204528E-7
         8158.066     2.155062E-7
         8163.523     2.105933E-7
         8168.988     2.057104E-7
         8174.448     2.008692E-7
         8179.916     1.960574E-7
         8185.387     1.912801E-7
         8190.862     1.865361E-7
         8196.341     1.818253E-7
         8201.823     1.777987E-7
         8207.313     1.750984E-7
         8212.799     1.724193E-7
         8218.292     1.697552E-7
         8223.789     1.671080E-7
          8229.29     1.644776E-7
         8234.794     1.618648E-7
         8240.303     1.592682E-7
         8245.814     1.566890E-7
         8251.329     1.541269E-7
         8256.849     1.515809E-7
         8262.371     1.490524E-7
         8267.898     1.465405E-7
         8273.429     1.440458E-7
         8278.962     1.415683E-7
           8284.5     1.391073E-7
         8290.041     1.366633E-7
         8295.586     1.342361E-7
         8301.135     1.319497E-7
         8306.688     1.301602E-7
         8312.244     1.283820E-7
         8317.804     1.266155E-7
         8323.367     1.248600E-7
         8328.935     1.231155E-7
         8334.506     1.213827E-7
          8340.08     1.196612E-7
         8345.659     1.179504E-7
         8351.241     1.163244E-7
         8356.827     1.149617E-7
         8362.417     1.136019E-7
         8368.011     1.122451E-7
         8373.607     1.108911E-7
         8379.208     1.095399E-7
         8384.813     1.081916E-7
         8390.422     1.068466E-7
         8396.034     1.055042E-7
         8401.649     1.040811E-7
          8407.27     1.024596E-7
         8412.893     1.008426E-7
          8418.52     9.922991E-8
         8424.151     9.762133E-8
         8429.786     9.601742E-8
         8435.424     9.441833E-8
         8441.066     9.282346E-8
         8446.713     9.123318E-8
         8452.362     8.964795E-8
         8458.016     8.806767E-8
         8463.674     8.649164E-8
         8469.335     8.492056E-8
            8475.     8.335434E-8
         8480.668     8.179332E-8
         8486.341     8.023700E-8
         8492.018     7.868572E-8
         8497.697     7.713979E-8
         8503.381     7.601454E-8
         8509.069     7.517490E-8
         8514.761     7.433742E-8
         8520.456     7.350197E-8
         8526.155     7.266859E-8
         8531.858     7.183730E-8
         8537.564     7.100825E-8
         8543.275     7.018124E-8
          8548.99     6.935636E-8
         8554.708     6.853386E-8
         8560.431     6.771342E-8
         8566.156     6.689539E-8
         8571.886     6.607961E-8
         8577.619     6.526616E-8
         8583.356     6.445485E-8
         8589.098     6.364574E-8
         8594.843     6.283946E-8
         8600.592     6.201332E-8
         8606.345     6.099537E-8
         8612.102     5.998112E-8
         8617.862     5.897058E-8
         8623.621     5.796486E-8
         8629.395     5.696110E-8
         8635.166     5.596219E-8
         8640.942     5.496699E-8
         8646.722     5.397592E-8
         8652.506     5.298618E-8
         8658.293     5.199755E-8
         8664.085     5.101301E-8
          8669.88     5.003297E-8
         8675.679     4.905734E-8
         8681.481     4.808609E-8
         8687.289     4.711909E-8
           8693.1     4.615671E-8
         8698.914     4.519885E-8
         8704.728     4.472425E-8
         8710.555     4.435985E-8
         8716.382     4.399633E-8
         8722.212     4.363352E-8
         8728.046     4.327137E-8
         8733.884     4.290989E-8
         8739.721     4.254940E-8
         8745.571     4.218895E-8
         8751.421     4.182952E-8
         8757.275     4.147077E-8
         8763.133     4.111279E-8
         8768.994     4.075553E-8
         8774.859     4.039901E-8
         8780.724     4.004352E-8
         8786.602     3.968821E-8
         8792.479     3.933389E-8
          8798.36     3.898041E-8
         8804.245     3.862617E-8
         8810.135     3.827208E-8
         8816.027     3.791890E-8
         8821.919     3.756683E-8
         8827.825     3.721496E-8
         8833.729     3.686426E-8
         8839.639     3.651438E-8
         8845.551     3.616546E-8
         8851.468     3.581735E-8
         8857.384     3.547040E-8
         8863.308     3.512412E-8
         8869.241     3.477840E-8
         8875.174     3.443390E-8
          8881.11     3.409033E-8
         8887.051     3.374773E-8
         8892.995     3.340608E-8
         8898.938     3.306565E-8
         8904.891     3.277271E-8
         8910.852     3.249022E-8
         8916.813     3.220839E-8
         8922.776     3.192709E-8
         8928.745     3.164620E-8
         8934.717     3.136586E-8
         8940.688     3.108620E-8
         8946.669     3.080681E-8
         8952.658     3.052623E-8
         8958.646     3.024468E-8
         8964.639     2.996365E-8
         8970.635     2.968326E-8
          8976.63     2.940368E-8
         8982.634     2.912448E-8
         8988.643     2.884587E-8
          8994.66     2.856763E-8
         9000.676     2.841025E-8
         9006.696     2.919633E-8
         9012.721     2.997293E-8
         9018.744     3.073938E-8
         9024.776     3.149687E-8
         9030.818     3.224543E-8
         9036.858     3.298354E-8
         9042.903     3.371200E-8
         9048.952     3.443063E-8
         9055.005     3.513934E-8
         9061.057     3.583752E-8
         9067.117     3.652620E-8
         9073.182     3.720475E-8
         9079.256     3.787378E-8
         9085.329     3.853202E-8
         9091.405     3.917985E-8
         9097.481     3.981692E-8
         9103.567     3.971859E-8
         9109.656     3.910843E-8
         9115.749     3.850164E-8
         9121.852     3.789768E-8
         9127.953     3.729768E-8
         9134.059     3.670113E-8
         9140.163     3.610855E-8
         9146.277     3.551895E-8
         9152.395     3.493300E-8
         9158.521     3.435003E-8
         9164.647     3.377116E-8
         9170.777     3.319595E-8
         9176.912     3.262430E-8
         9183.045     3.205689E-8
         9189.188     3.149264E-8
         9195.334     3.093214E-8
         9201.484     3.048152E-8
         9207.644     3.036460E-8
         9213.803     3.024571E-8
         9219.961     3.012489E-8
         9226.128     3.000187E-8
         9232.299     2.987679E-8
         9238.475     2.974959E-8
         9244.653     2.962033E-8
         9250.843     2.948843E-8
          9257.03     2.935211E-8
         9263.217     2.921378E-8
         9269.413     2.907320E-8
         9275.613     2.893051E-8
         9281.817     2.878570E-8
         9288.025     2.863877E-8
         9294.243     2.848953E-8
          9300.46     2.836831E-8
         9306.676     2.861760E-8
           9312.9     2.885828E-8
          9319.13     2.909014E-8
         9325.363     2.931308E-8
         9331.601     2.952707E-8
         9337.848     2.973227E-8
         9344.089     2.992808E-8
         9350.339     3.011492E-8
         9356.593     3.029262E-8
         9362.852     3.046114E-8
         9369.114     3.062039E-8
         9375.386     3.077039E-8
         9381.657     3.091095E-8
         9387.927     3.104207E-8
         9394.206     3.116369E-8
          9400.49     3.128131E-8
         9406.777     3.145446E-8
         9413.069     3.161647E-8
         9419.366     3.176727E-8
         9425.672     3.190697E-8
         9431.971     3.203524E-8
          9438.28     3.215245E-8
         9444.593     3.225812E-8
          9450.91     3.235233E-8
         9457.231     3.243516E-8
         9463.563     3.250647E-8
         9469.893     3.256608E-8
         9476.222     3.261377E-8
         9482.561     3.264973E-8
         9488.903     3.267385E-8
          9495.25     3.268618E-8
         9501.602     3.301239E-8
         9507.962     3.428350E-8
         9514.316     3.552362E-8
          9520.68     3.673563E-8
         9527.048     3.791893E-8
         9533.421     3.907330E-8
         9539.798     4.019858E-8
         9546.179     4.129492E-8
         9552.569     4.236325E-8
         9558.953     4.340087E-8
         9565.347     4.441055E-8
         9571.745     4.539153E-8
         9578.147     4.634376E-8
         9584.554     4.726706E-8
         9590.965     4.816162E-8
         9597.386     4.902822E-8
           9603.8     5.005245E-8
         9610.224     5.117286E-8
         9616.651     5.225780E-8
         9623.084     5.330743E-8
         9629.521     5.432163E-8
         9635.962     5.530064E-8
         9642.407     5.624428E-8
         9648.856     5.715260E-8
         9655.311     5.802579E-8
         9661.769     5.886372E-8
         9668.231     5.966662E-8
         9674.698     6.043435E-8
         9681.169     6.116696E-8
          9687.64     6.186409E-8
         9694.125     6.252735E-8
         9700.609     6.327908E-8
         9707.098     6.517350E-8
         9713.591     6.700001E-8
         9720.088     6.875839E-8
         9726.589     7.044864E-8
         9733.095     7.207132E-8
         9739.605     7.362643E-8
          9746.12     7.511360E-8
         9752.639     7.652259E-8
         9759.162     7.784807E-8
          9765.69     7.910508E-8
         9772.217     8.029270E-8
         9778.753     8.141332E-8
           9785.3     8.246703E-8
         9791.845     8.345192E-8
         9798.395     8.436920E-8
         9804.948     8.638882E-8
         9811.507     8.867773E-8
         9818.063     9.084819E-8
         9824.631     9.290470E-8
         9831.208     9.484697E-8
         9837.784     9.667207E-8
         9844.364     9.838189E-8
         9850.949     9.997694E-8
         9857.538     1.014572E-7
         9864.126     1.028220E-7
         9870.729     1.040750E-7
         9877.332     1.052132E-7
         9883.938     1.062378E-7
          9890.55     1.071494E-7
         9897.165     1.079482E-7
         9903.779     1.094491E-7
         9910.404     1.114060E-7
         9917.033     1.131934E-7
         9923.672     1.148122E-7
          9930.31     1.162605E-7
         9936.952     1.175405E-7
         9943.599     1.186527E-7
         9950.244     1.195971E-7
         9956.899     1.203747E-7
         9963.564     1.209864E-7
         9970.229     1.214318E-7
         9976.898     1.217117E-7
         9983.571     1.218269E-7
         9990.249     1.217782E-7
         9996.926     1.215653E-7
         10003.61     1.112064E-7
          10010.3     9.544377E-8
           10017.     1.366454E-7
          10023.7     1.533416E-7
         10030.42     1.537839E-7
         10037.11     1.965722E-7
         10043.83     1.795371E-7
         10050.55     1.241778E-7
         10057.27     1.221412E-7
           10064.     1.327437E-7
         10070.73     1.496309E-7
         10077.47     1.512099E-7
          10084.2     1.627555E-7
         10090.95     1.764716E-7
          10097.7     1.694547E-7
         10104.45     1.575223E-7
         10111.21     1.440226E-7
         10117.97     1.339680E-7
         10124.75     1.523519E-7
         10131.51     1.744700E-7
         10138.29     1.711597E-7
         10145.07     1.756090E-7
         10151.86     1.777054E-7
         10158.65     1.675540E-7
         10165.44     1.759411E-7
         10172.25     1.798784E-7
         10179.05     1.668061E-7
         10185.86     1.699339E-7
         10192.67     1.788543E-7
         10199.49     1.926259E-7
         10206.31     1.870447E-7
         10213.14     1.826514E-7
         10219.97     1.812711E-7
          10226.8     1.958572E-7
         10233.64     1.858737E-7
         10240.49     1.592485E-7
         10247.34     1.779648E-7
         10254.19     1.926149E-7
         10261.05     2.019340E-7
         10267.91     1.967697E-7
         10274.78     1.900604E-7
         10281.66     1.833299E-7
         10288.53     1.783589E-7
         10295.41     1.800115E-7
          10302.3     1.817073E-7
         10309.19     1.804172E-7
         10316.09     1.857180E-7
         10322.99     1.904902E-7
         10329.89     1.936430E-7
          10336.8     1.704016E-7
         10343.72     1.634072E-7
         10350.63     1.694559E-7
         10357.56     1.747683E-7
         10364.49     1.684473E-7
         10371.42     1.597824E-7
         10378.36     1.638089E-7
          10385.3     1.629458E-7
         10392.24     1.574847E-7
          10399.2     1.460101E-7
         10406.15     1.521465E-7
         10413.11     1.506081E-7
         10420.08     1.383779E-7
         10427.05     1.371553E-7
         10434.02     1.331578E-7
           10441.     1.265063E-7
         10447.98     1.152527E-7
         10454.97     1.173250E-7
         10461.96     1.201788E-7
         10468.96     1.142945E-7
         10475.97     1.088849E-7
         10482.97     1.008492E-7
         10489.98     8.979509E-8
           10497.     9.119536E-8
         10504.02     8.927808E-8
         10511.05     8.580852E-8
         10518.08     8.330121E-8
         10525.11     8.307477E-8
         10532.15     8.348816E-8
          10539.2     8.350356E-8
         10546.25     8.304595E-8
          10553.3     8.385204E-8
         10560.36     8.586984E-8
         10567.42     8.382840E-8
         10574.49     8.556207E-8
         10581.57     8.791378E-8
         10588.64     8.536632E-8
         10595.73     8.563881E-8
         10602.81     8.565929E-8
         10609.91     8.438288E-8
           10617.     8.110621E-8
          10624.1     7.856801E-8
         10631.21     7.683667E-8
         10638.32     7.638829E-8
         10645.44     7.932999E-8
         10652.56     8.129024E-8
         10659.68     7.989723E-8
         10666.81     7.615847E-8
         10673.95     7.412330E-8
         10681.09     7.321103E-8
         10688.23     7.088913E-8
         10695.38     7.054263E-8
         10702.54     7.099352E-8
         10709.69     7.175592E-8
         10716.86     6.984089E-8
         10724.03     6.833007E-8
          10731.2     6.719983E-8
         10738.38     6.605706E-8
         10745.56     6.595021E-8
         10752.75     6.526891E-8
         10759.94     6.327915E-8
         10767.14     6.131983E-8
         10774.34     6.027148E-8
         10781.54     5.916072E-8
         10788.76     5.586314E-8
         10795.97     5.508336E-8
         10803.19     5.446999E-8
         10810.42     5.343585E-8
         10817.65     5.199686E-8
         10824.89     5.109849E-8
         10832.13     4.985679E-8
         10839.37     4.729466E-8
         10846.62     4.546925E-8
         10853.88     4.392457E-8
         10861.14     4.263217E-8
          10868.4     4.174983E-8
         10875.67     4.059504E-8
         10882.95     3.936430E-8
         10890.23     3.811109E-8
         10897.52     3.631458E-8
          10904.8     3.465323E-8
         10912.09     3.332331E-8
         10919.39     3.261159E-8
          10926.7     3.088921E-8
           10934.     2.900478E-8
         10941.32     2.739370E-8
         10948.64     2.715018E-8
         10955.96     2.509361E-8
         10963.29     2.320366E-8
         10970.62     2.192981E-8
         10977.96     2.082166E-8
          10985.3     1.976798E-8
         10992.65     1.826399E-8
           11000.     1.604653E-8
