#  Table wf2f160bwsys.tab  Mon 12:21:38 02-Jun-97

#      WAVELENGTH      THROUGHPUT
#       angstroms                

            1216.     4.679715E-4
          1217.34     4.763569E-4
         1218.682     4.848494E-4
         1220.026     4.934312E-4
         1221.371     5.006229E-4
         1222.717     5.078930E-4
         1224.065     5.152510E-4
         1225.414     5.226923E-4
         1226.765     5.302189E-4
         1228.117     5.378312E-4
         1229.471     5.455295E-4
         1230.826     5.524580E-4
         1232.183     5.589107E-4
         1233.542     5.654279E-4
         1234.901     5.720014E-4
         1236.262     5.786406E-4
         1237.625     5.853399E-4
         1238.989     5.921065E-4
         1240.355     5.986408E-4
         1241.722     6.043680E-4
         1243.091     6.101438E-4
         1244.461     6.159649E-4
         1245.833     6.218292E-4
         1247.207     6.277455E-4
         1248.582     6.337063E-4
         1249.957     6.397104E-4
         1251.335     6.449110E-4
         1252.715     6.501186E-4
         1254.095     6.553579E-4
         1255.478     6.606365E-4
         1256.862     6.659473E-4
         1258.247     6.712900E-4
         1259.634     6.766703E-4
         1261.023     6.815365E-4
         1262.413     6.862323E-4
         1263.805     6.909531E-4
         1265.198     6.956987E-4
         1266.592     7.004674E-4
         1267.989     7.052642E-4
         1269.387     7.100884E-4
         1270.786     7.145714E-4
         1272.187     7.187931E-4
         1273.588     7.230301E-4
         1274.992     7.272869E-4
         1276.399     7.315634E-4
         1277.805     7.358536E-4
         1279.214     7.401629E-4
         1280.624     7.442621E-4
         1282.035     7.480845E-4
         1283.449     7.519226E-4
         1284.864     7.557707E-4
          1286.28     7.596280E-4
         1287.698     7.634997E-4
         1289.117     7.673829E-4
         1290.538     7.711335E-4
         1291.961     7.746557E-4
         1293.385     7.781854E-4
         1294.811     7.817213E-4
         1296.238     7.852662E-4
         1297.668     7.888207E-4
         1299.098     7.923796E-4
          1300.53     7.954527E-4
         1301.963     7.976861E-4
         1303.398     7.999207E-4
         1304.835     8.021586E-4
         1306.274     8.043995E-4
         1307.713     8.066405E-4
         1309.155     8.088848E-4
         1310.597     8.110486E-4
         1312.042     8.130996E-4
         1313.489     8.151509E-4
         1314.937     8.172038E-4
         1316.386     8.192552E-4
         1317.837     8.213081E-4
          1319.29     8.233606E-4
         1320.744     8.253336E-4
           1322.2     8.272295E-4
         1323.657     8.291241E-4
         1325.117     8.310181E-4
         1326.578     8.329112E-4
         1328.039     8.348023E-4
         1329.503     8.366936E-4
         1330.969     8.384885E-4
         1332.436     8.402325E-4
         1333.905     8.419746E-4
         1335.376     8.437146E-4
         1336.847     8.454511E-4
         1338.321     8.471865E-4
         1339.796     8.489194E-4
         1341.273     8.505660E-4
         1342.752     8.521963E-4
         1344.232     8.538234E-4
         1345.713     8.554464E-4
         1347.197     8.570670E-4
         1348.682     8.586846E-4
         1350.169     8.602901E-4
         1351.657     8.618265E-4
         1353.146     8.633581E-4
         1354.638     8.647824E-4
         1356.131     8.660631E-4
         1357.627     8.673402E-4
         1359.123     8.686117E-4
         1360.621     8.698622E-4
         1362.121     8.710837E-4
         1363.622     8.722999E-4
         1365.126     8.735126E-4
          1366.63     8.747192E-4
         1368.137     8.759216E-4
         1369.645     8.771191E-4
         1371.155     8.783105E-4
         1372.667     8.794983E-4
          1374.18     8.806802E-4
         1375.694     8.818565E-4
         1377.211     8.830283E-4
         1378.729     8.841950E-4
         1380.249     8.853607E-4
         1381.771     8.865420E-4
         1383.294     8.877185E-4
         1384.818     8.888891E-4
         1386.345     8.900553E-4
         1387.874     8.912170E-4
         1389.403     8.923721E-4
         1390.935     8.935640E-4
         1392.468     8.947772E-4
         1394.002     8.959851E-4
          1395.54     8.971892E-4
         1397.078     8.983880E-4
         1398.618     8.995814E-4
          1400.16     9.005777E-4
         1401.703     8.998999E-4
         1403.248     8.992180E-4
         1404.795     8.985310E-4
         1406.343     8.978401E-4
         1407.894     8.971448E-4
         1409.446     8.964447E-4
         1410.999     8.957693E-4
         1412.555     8.951047E-4
         1414.112     8.944359E-4
          1415.67     8.937633E-4
         1417.231     8.930861E-4
         1418.793     8.924047E-4
         1420.357     8.917146E-4
         1421.923     8.910059E-4
         1423.491     8.902927E-4
         1425.059     8.895757E-4
          1426.63     8.888540E-4
         1428.203     8.881280E-4
         1429.777     8.873977E-4
         1431.354     8.866062E-4
         1432.932     8.858008E-4
          1434.51     8.849915E-4
         1436.092     8.841772E-4
         1437.676     8.833581E-4
          1439.26     8.825356E-4
         1440.847     8.816377E-4
         1442.435     8.806734E-4
         1444.024     8.797051E-4
         1445.617     8.787314E-4
          1447.21     8.777539E-4
         1448.805     8.767713E-4
         1450.402     8.757351E-4
         1452.001     8.745485E-4
         1453.602     8.733560E-4
         1455.205     8.721589E-4
         1456.808     8.709579E-4
         1458.414     8.697512E-4
         1460.022     8.685365E-4
         1461.631     8.670774E-4
         1463.243     8.656134E-4
         1464.856     8.641442E-4
          1466.47     8.626707E-4
         1468.086     8.611911E-4
         1469.706     8.597058E-4
         1471.325     8.579642E-4
         1472.947     8.561603E-4
         1474.571     8.543509E-4
         1476.196     8.525368E-4
         1477.824     8.507156E-4
         1479.453     8.488900E-4
         1481.083     8.468221E-4
         1482.716     8.446276E-4
          1484.35     8.424275E-4
         1485.987     8.402215E-4
         1487.625     8.386369E-4
         1489.264     8.380559E-4
         1490.906     8.372291E-4
         1492.549     8.361986E-4
         1494.195     8.351493E-4
         1495.842     8.340810E-4
         1497.491     8.329938E-4
         1499.142     8.318878E-4
         1500.794     8.295288E-4
         1502.449     8.258127E-4
         1504.105     8.220826E-4
         1505.763     8.183335E-4
         1507.423     8.145671E-4
         1509.084     8.107858E-4
         1510.748     8.068408E-4
         1512.414     8.027066E-4
          1514.08     7.985582E-4
         1515.749     7.943922E-4
         1517.419     7.902122E-4
         1519.093     7.860124E-4
         1520.768     7.817140E-4
         1522.444     7.772998E-4
         1524.122     7.728730E-4
         1525.802     7.684299E-4
         1527.484     7.639729E-4
         1529.168     7.595018E-4
         1530.854     7.549761E-4
          1532.54     7.503994E-4
          1534.23     7.458077E-4
         1535.921     7.412031E-4
         1537.615     7.365842E-4
          1539.31     7.319574E-4
         1541.006     7.273362E-4
         1542.705     7.227164E-4
         1544.405     7.180877E-4
         1546.109     7.122829E-4
         1547.812     7.058773E-4
         1549.518     6.994900E-4
         1551.227     6.932169E-4
         1552.936     6.870045E-4
         1554.648     6.808104E-4
         1556.363     6.746342E-4
         1558.078     6.684847E-4
         1559.795     6.623542E-4
         1561.515     6.564447E-4
         1563.235     6.505853E-4
         1564.958     6.447430E-4
         1566.685     6.389178E-4
         1568.411     6.331183E-4
          1570.14     6.273598E-4
         1571.871     6.218920E-4
         1573.603     6.164454E-4
         1575.338     6.110142E-4
         1577.075     6.055984E-4
         1578.813     6.002063E-4
         1580.553     5.949509E-4
         1582.295     5.899749E-4
         1584.039     5.850119E-4
         1585.785     5.800651E-4
         1587.534     5.751341E-4
         1589.284     5.702191E-4
         1591.036     5.655786E-4
          1592.79     5.611310E-4
         1594.545     5.566989E-4
         1596.303     5.522778E-4
         1598.062     5.478701E-4
         1599.824     5.434756E-4
         1601.588     5.386475E-4
         1603.353     5.337904E-4
          1605.12     5.289499E-4
          1606.89     5.241276E-4
         1608.661     5.193240E-4
         1610.434     5.146617E-4
          1612.21     5.103919E-4
         1613.986     5.061380E-4
         1615.765     5.018962E-4
         1617.548     4.976658E-4
          1619.33     4.934540E-4
         1621.115     4.895645E-4
         1622.902     4.858714E-4
          1624.69     4.821896E-4
         1626.482     4.785137E-4
         1628.275     4.748505E-4
         1630.069     4.712145E-4
         1631.867     4.680600E-4
         1633.665     4.649124E-4
         1635.466     4.617664E-4
         1637.269     4.586268E-4
         1639.074     4.554924E-4
          1640.88     4.526064E-4
         1642.689     4.499757E-4
           1644.5     4.473456E-4
         1646.313     4.447163E-4
         1648.128     4.421134E-4
         1649.944     4.398520E-4
         1651.763     4.380653E-4
         1653.585     4.362857E-4
         1655.407     4.345010E-4
         1657.232     4.327082E-4
         1659.058     4.309091E-4
         1660.888     4.293172E-4
         1662.719     4.279465E-4
         1664.552     4.265659E-4
         1666.386     4.251761E-4
         1668.223     4.237754E-4
         1670.062     4.223778E-4
         1671.903     4.213430E-4
         1673.746     4.202959E-4
          1675.59     4.192369E-4
         1677.437     4.181650E-4
         1679.287     4.170803E-4
         1681.139     4.161868E-4
         1682.991     4.154078E-4
         1684.847     4.146140E-4
         1686.704     4.138054E-4
         1688.563     4.129824E-4
         1690.425     4.122074E-4
         1692.287     4.116331E-4
         1694.153     4.110418E-4
         1696.021     4.104338E-4
          1697.89     4.098093E-4
         1699.762     4.091672E-4
         1701.636     4.091955E-4
         1703.512     4.093112E-4
         1705.389     4.094144E-4
         1707.269     4.095050E-4
         1709.151     4.095831E-4
         1711.035     4.097581E-4
         1712.922     4.100101E-4
         1714.809     4.102486E-4
         1716.699     4.104733E-4
         1718.592     4.106844E-4
         1720.485     4.109212E-4
         1722.383     4.112604E-4
         1724.281     4.115844E-4
         1726.182     4.118939E-4
         1728.086     4.121885E-4
          1729.99     4.124680E-4
         1731.897     4.128590E-4
         1733.806     4.132349E-4
         1735.718     4.135949E-4
          1737.63     4.139387E-4
         1739.546     4.142663E-4
         1741.463     4.146501E-4
         1743.383     4.150395E-4
         1745.305     4.154117E-4
         1747.228     4.157665E-4
         1749.154     4.161040E-4
         1751.084     4.160586E-4
         1753.013     4.157107E-4
         1754.946     4.153443E-4
          1756.88     4.149596E-4
         1758.817     4.145566E-4
         1760.756     4.141558E-4
         1762.697     4.137687E-4
         1764.639     4.133624E-4
         1766.585     4.129369E-4
         1768.532     4.124918E-4
         1770.482     4.120400E-4
         1772.434     4.116068E-4
         1774.387     4.111535E-4
         1776.343     4.106802E-4
         1778.301     4.101862E-4
         1780.262     4.096775E-4
         1782.224     4.091887E-4
         1784.189     4.086785E-4
         1786.156     4.081468E-4
         1788.124     4.075939E-4
         1790.096     4.070212E-4
         1792.068     4.064738E-4
         1794.044     4.059037E-4
         1796.022     4.053112E-4
         1798.001     4.046963E-4
         1799.984     4.040579E-4
         1801.968     4.016555E-4
         1803.954     3.991951E-4
         1805.942     3.966918E-4
         1807.933     3.941433E-4
         1809.926     3.915503E-4
         1811.922     3.889533E-4
         1813.919     3.863120E-4
         1815.918     3.836260E-4
          1817.92     3.808920E-4
         1819.925     3.781100E-4
          1821.93     3.753201E-4
         1823.938     3.724823E-4
         1825.948     3.695973E-4
         1827.962     3.666609E-4
         1829.976     3.636781E-4
         1831.995     3.606791E-4
         1834.013     3.576331E-4
         1836.035     3.545346E-4
         1838.059     3.513850E-4
         1840.084     3.481868E-4
         1842.113     3.449663E-4
         1844.144     3.416927E-4
         1846.177     3.383659E-4
         1848.212     3.349854E-4
         1850.248     3.315563E-4
         1852.288     3.280987E-4
          1854.33     3.245852E-4
         1856.375     3.210142E-4
         1858.421     3.173905E-4
         1860.469     3.137153E-4
          1862.52     3.100076E-4
         1864.573     3.062401E-4
         1866.628     3.024137E-4
         1868.686     2.985285E-4
         1870.746     2.945933E-4
         1872.808     2.906144E-4
         1874.872     2.865765E-4
         1876.939     2.824753E-4
         1879.008     2.783115E-4
         1881.079     2.738712E-4
         1883.153     2.693860E-4
         1885.229     2.648438E-4
         1887.307     2.602467E-4
         1889.387     2.555899E-4
         1891.471     2.508877E-4
         1893.555     2.461376E-4
         1895.643     2.413258E-4
         1897.732     2.364549E-4
         1899.823     2.315268E-4
         1901.919     2.293498E-4
         1904.014     2.274036E-4
         1906.113     2.254268E-4
         1908.215     2.234204E-4
         1910.317     2.213880E-4
         1912.424     2.193391E-4
         1914.532     2.172616E-4
         1916.643     2.151517E-4
         1918.755     2.130130E-4
          1920.87     2.108484E-4
         1922.988     2.086611E-4
         1925.107     2.064434E-4
          1927.23     2.041920E-4
         1929.354     2.019110E-4
         1931.481     1.996076E-4
          1933.61     1.972764E-4
          1935.74     1.949140E-4
         1937.875     1.925164E-4
         1940.011     1.900885E-4
         1942.149     1.876366E-4
          1944.29     1.851513E-4
         1946.434     1.826324E-4
          1948.58     1.800798E-4
         1950.728     1.774977E-4
         1952.878     1.748897E-4
          1955.03     1.722484E-4
         1957.185     1.695713E-4
         1959.343     1.668594E-4
         1961.503     1.641169E-4
         1963.665     1.613413E-4
         1965.829     1.585315E-4
         1967.996     1.556849E-4
         1970.167     1.528017E-4
         1972.339     1.498919E-4
         1974.512     1.469473E-4
         1976.689     1.439647E-4
         1978.868     1.409456E-4
         1981.049     1.378919E-4
         1983.233     1.348037E-4
         1985.418     1.316799E-4
         1987.607     1.285170E-4
         1989.798     1.253166E-4
         1991.992     1.216260E-4
         1994.188     1.178463E-4
         1996.386     1.140236E-4
         1998.586     1.101593E-4
         2000.789     1.069671E-4
         2002.996     1.050273E-4
         2005.203     1.030613E-4
         2007.414     1.010660E-4
         2009.627     9.904216E-5
         2011.841     9.634819E-5
          2014.06     9.348366E-5
         2016.279     9.058372E-5
         2018.502     8.764362E-5
         2020.727     8.475091E-5
         2022.955     8.199915E-5
         2025.185     7.921130E-5
         2027.417     7.638696E-5
         2029.652     7.352628E-5
         2031.889     7.109165E-5
         2034.129     6.870992E-5
         2036.371     6.629722E-5
         2038.616     6.385374E-5
         2040.864     6.159429E-5
         2043.112     5.965382E-5
         2045.365     5.768759E-5
         2047.621     5.569527E-5
         2049.877     5.367992E-5
         2052.137     5.245740E-5
         2054.399     5.126660E-5
         2056.664     5.006024E-5
         2058.931     4.883812E-5
         2061.201     4.712753E-5
         2063.472     4.497358E-5
         2065.747     4.279313E-5
         2068.024     4.058673E-5
         2070.304     3.839464E-5
         2072.586     3.643983E-5
         2074.871     3.446270E-5
         2077.157     3.246357E-5
         2079.447     3.044083E-5
          2081.74     2.910547E-5
         2084.034     2.798321E-5
         2086.332     2.684765E-5
         2088.632     2.569907E-5
         2090.933     2.427728E-5
          2093.24     2.245324E-5
         2095.546     2.061173E-5
         2097.856     1.874973E-5
         2100.169     1.691558E-5
         2102.483     1.567249E-5
         2104.802     1.441509E-5
         2107.121     1.314611E-5
         2109.444     1.186335E-5
         2111.769     1.070676E-5
         2114.097     9.582597E-6
         2116.428     8.447389E-6
          2118.76     7.301569E-6
         2121.097     6.432219E-6
         2123.434     5.883287E-6
         2125.775     5.328870E-6
         2128.118     4.769175E-6
         2130.463     4.250639E-6
         2132.813     3.915239E-6
         2135.163     3.577118E-6
         2137.518     3.235593E-6
         2139.875     2.892024E-6
         2142.231     2.674079E-6
         2144.594     2.461016E-6
         2146.958     2.246051E-6
         2149.325     2.029084E-6
         2151.693     1.868385E-6
         2154.065     1.729498E-6
          2156.44     1.589383E-6
         2158.817     1.448019E-6
         2161.197     1.330781E-6
         2163.578     1.237814E-6
         2165.964     1.144007E-6
         2168.353     1.049376E-6
         2170.743     9.639964E-7
         2173.135     9.002266E-7
         2175.529     8.359592E-7
         2177.929     7.711263E-7
         2180.329     7.087413E-7
         2182.733     6.640569E-7
         2185.138     6.190974E-7
         2187.547     5.737927E-7
         2189.959     5.281647E-7
         2192.372     4.960933E-7
         2194.789     4.640408E-7
         2197.208     4.317771E-7
         2199.632     3.992913E-7
         2202.056     3.770578E-7
         2204.482     3.562450E-7
         2206.912     3.349480E-7
         2209.345     3.131742E-7
         2211.782     2.959817E-7
         2214.219     2.803130E-7
          2216.66     2.642940E-7
         2219.104     2.479306E-7
         2221.549     2.344079E-7
         2223.998     2.224554E-7
         2226.449     2.102524E-7
         2228.904     1.977961E-7
         2231.361     1.871310E-7
          2233.82     1.779160E-7
         2236.284     1.685064E-7
         2238.748     1.589198E-7
         2241.217     1.504895E-7
         2243.687     1.433086E-7
         2246.159     1.359894E-7
         2248.636     1.285235E-7
         2251.114     1.218507E-7
         2253.597     1.161938E-7
          2256.08     1.104379E-7
         2258.567     1.045743E-7
         2261.057     9.927092E-8
         2263.548     9.478723E-8
         2266.045     9.021903E-8
         2268.542     8.557532E-8
         2271.042     8.135054E-8
         2273.546     7.776191E-8
         2276.051     7.411388E-8
         2278.562     7.040077E-8
         2281.072     6.702840E-8
         2283.588     6.413764E-8
         2286.104     6.120202E-8
         2288.623     5.821829E-8
         2291.147     5.551570E-8
         2293.672     5.317361E-8
         2296.202     5.079360E-8
         2298.732     4.839728E-8
         2301.266     4.624797E-8
         2303.803     4.435411E-8
         2306.342     4.242962E-8
         2308.885     4.047173E-8
         2311.431     3.874003E-8
         2313.979     3.718236E-8
          2316.53     3.559946E-8
         2319.082     3.399212E-8
         2321.639     3.259321E-8
         2324.198     3.130475E-8
          2326.76     2.999600E-8
         2329.325     2.866696E-8
         2331.892     2.753494E-8
         2334.463     2.646299E-8
         2337.038     2.537401E-8
         2339.613     2.426978E-8
         2342.193     2.335057E-8
         2344.774     2.245460E-8
         2347.357     2.154538E-8
         2349.947     2.062180E-8
         2352.536     1.987549E-8
         2355.131     1.912162E-8
         2357.726     1.835765E-8
         2360.326     1.760172E-8
         2362.927     1.697458E-8
         2365.531     1.633852E-8
          2368.14     1.569296E-8
         2370.749     1.507624E-8
         2373.364     1.454345E-8
         2375.979     1.400392E-8
         2378.598     1.345678E-8
          2381.22     1.295212E-8
         2383.844     1.249866E-8
         2386.473     1.203869E-8
         2389.103     1.157316E-8
         2391.737     1.115985E-8
         2394.373     1.077168E-8
         2397.012     1.037869E-8
         2399.656     9.980343E-9
           2402.3     9.641688E-9
         2404.949     9.308176E-9
           2407.6     8.970729E-9
         2410.252     8.635314E-9
          2412.91     8.351487E-9
          2415.57     8.064395E-9
         2418.233     7.773871E-9
         2420.898     7.497476E-9
         2423.567     7.252249E-9
         2426.238     7.004183E-9
         2428.913     6.753216E-9
         2431.591     6.525383E-9
         2434.271     6.312837E-9
         2436.954     6.097998E-9
         2439.641     5.880526E-9
         2442.331     5.692932E-9
         2445.022     5.508322E-9
         2447.718     5.321569E-9
         2450.416     5.137624E-9
         2453.117     4.978401E-9
         2455.822     4.817445E-9
         2458.528     4.654826E-9
         2461.239     4.502571E-9
         2463.951     4.363488E-9
         2466.669     4.222786E-9
         2469.387     4.080722E-9
         2472.108     3.954984E-9
         2474.834     3.833018E-9
         2477.561     3.709896E-9
         2480.294     3.587481E-9
         2483.027     3.481591E-9
         2485.764     3.374546E-9
         2488.504     3.266387E-9
         2491.246     3.164911E-9
         2493.994     3.071622E-9
         2496.742     2.977474E-9
         2499.494     2.882304E-9
          2502.25     2.798161E-9
         2505.007     2.715913E-9
          2507.77     2.632738E-9
         2510.533     2.551257E-9
         2513.302     2.479194E-9
         2516.072     2.406464E-9
         2518.844     2.332996E-9
         2521.622     2.265145E-9
         2524.401     2.201283E-9
         2527.185     2.136708E-9
         2529.969     2.071539E-9
         2532.759     2.015239E-9
         2535.551     1.958469E-9
         2538.344     1.899102E-9
         2541.144     1.840499E-9
         2543.946     1.786563E-9
          2546.75     1.732342E-9
         2549.558     1.677835E-9
         2552.367     1.629207E-9
          2555.18     1.581444E-9
         2557.997     1.533427E-9
         2560.817     1.486990E-9
         2563.639     1.444834E-9
         2566.465     1.402432E-9
         2569.294     1.359806E-9
         2572.128     1.321099E-9
         2574.962     1.283604E-9
           2577.8     1.245912E-9
         2580.643     1.209079E-9
         2583.486     1.175845E-9
         2586.336     1.142398E-9
         2589.186     1.108809E-9
         2592.039     1.078075E-9
         2594.897     1.048362E-9
         2597.757     1.018520E-9
         2600.622    9.892974E-10
         2603.487    9.628760E-10
         2606.357    9.362962E-10
         2609.231    9.095723E-10
         2612.106    8.851322E-10
         2614.985    8.614295E-10
          2617.87    8.375837E-10
         2620.754    8.143896E-10
         2623.643    7.932027E-10
         2626.536    7.718976E-10
         2629.431    7.504747E-10
         2632.328    7.310076E-10
         2635.232    7.119168E-10
         2638.135    6.927385E-10
         2641.045    6.742453E-10
         2643.955    6.571207E-10
          2646.87    6.398896E-10
         2649.788    6.225631E-10
         2652.708    6.070198E-10
         2655.633    5.915198E-10
          2658.56    5.759472E-10
          2661.49    5.611897E-10
         2664.424    5.472283E-10
          2667.36    5.331950E-10
         2670.302    5.192308E-10
         2673.244    5.066286E-10
         2676.193    4.939414E-10
         2679.142    4.811961E-10
         2682.094    4.693879E-10
         2685.052    4.579164E-10
         2688.012    4.463863E-10
         2690.975    4.352068E-10
          2693.94    4.248197E-10
          2696.91    4.143693E-10
         2699.883    4.038606E-10
         2702.858    3.951228E-10
         2705.839    3.863652E-10
         2708.822    3.775261E-10
         2711.807    3.692221E-10
         2714.796    3.612364E-10
         2717.789    3.531716E-10
         2720.785    3.452702E-10
         2723.785    3.379751E-10
         2726.788    3.306083E-10
         2729.792    3.231735E-10
         2732.802    3.164367E-10
         2735.814    3.096917E-10
          2738.83    3.028812E-10
         2741.849    2.964677E-10
         2744.872    2.902857E-10
         2747.898    2.840438E-10
         2750.926    2.777085E-10
         2753.958    2.712570E-10
         2756.994    2.647881E-10
         2760.034    2.583081E-10
         2763.076    2.524136E-10
         2766.121    2.465063E-10
         2769.172    2.405767E-10
         2772.223    2.350385E-10
         2775.281    2.296301E-10
         2778.339    2.242125E-10
           2781.4    2.190060E-10
         2784.468    2.140499E-10
         2787.536    2.090855E-10
          2790.61    2.041917E-10
         2793.685    1.996480E-10
         2796.765    1.950904E-10
         2799.848    1.905213E-10
         2802.933    1.863275E-10
         2806.025    1.821392E-10
         2809.117    1.779445E-10
         2812.213    1.739988E-10
         2815.314    1.701475E-10
         2818.417    1.662869E-10
         2821.524    1.625795E-10
         2824.633    1.590346E-10
         2827.749    1.554776E-10
         2830.865    1.519998E-10
         2833.985    1.487316E-10
         2837.109    1.454559E-10
         2840.236    1.421942E-10
         2843.368    1.391754E-10
         2846.501    1.361524E-10
         2849.641    1.331194E-10
         2852.781    1.303056E-10
         2855.924    1.275143E-10
         2859.074    1.247138E-10
         2862.226    1.220703E-10
         2865.381    1.194884E-10
          2868.54    1.169005E-10
         2871.701    1.144200E-10
         2874.866    1.120291E-10
         2878.036    1.096328E-10
         2881.208    1.073048E-10
         2884.385    1.050912E-10
         2887.563    1.028739E-10
         2890.748    1.006905E-10
         2893.935    9.863686E-11
         2897.123    9.657991E-11
         2900.317    9.451308E-11
         2903.515    9.240565E-11
         2906.715    9.030254E-11
          2909.92    8.820342E-11
         2913.126    8.625142E-11
         2916.338    8.430586E-11
         2919.552    8.236450E-11
         2922.773    8.054066E-11
         2925.993    7.874092E-11
         2929.217    7.694487E-11
         2932.448    7.524265E-11
         2935.679    7.357498E-11
         2938.916    7.191008E-11
         2942.155    7.032354E-11
         2945.399    6.877796E-11
         2948.646    6.723572E-11
         2951.895    6.575626E-11
         2955.151    6.432055E-11
         2958.407    6.288958E-11
         2961.668    6.150921E-11
         2964.933    6.017795E-11
           2968.2    5.885035E-11
         2971.474    5.756282E-11
         2974.748    5.632612E-11
         2978.027    5.509179E-11
          2981.31    5.389150E-11
         2984.595    5.274138E-11
         2987.887    5.159304E-11
         2991.179    5.047441E-11
         2994.477    4.940411E-11
         2997.778    4.833654E-11
         3001.083    4.729310E-11
         3004.391    4.629649E-11
         3007.702    4.530294E-11
         3011.019    4.432958E-11
         3014.337    4.340173E-11
         3017.658    4.247635E-11
         3020.987    4.156887E-11
         3024.317    4.070323E-11
         3027.651    3.983989E-11
         3030.987    3.899431E-11
         3034.328    3.818655E-11
         3037.673    3.738099E-11
         3041.022    3.659205E-11
         3044.375    3.583818E-11
         3047.731    3.508644E-11
         3051.089    3.435116E-11
         3054.454    3.364647E-11
          3057.82    3.294441E-11
         3061.191    3.225827E-11
         3064.565    3.160003E-11
         3067.944    3.094368E-11
         3071.326    3.030381E-11
          3074.71    2.968866E-11
           3078.1    2.907504E-11
         3081.495    2.847788E-11
          3084.89    2.790208E-11
         3088.292    2.732747E-11
         3091.696    2.677086E-11
         3095.102    2.623185E-11
         3098.516    2.569390E-11
          3101.93    2.523422E-11
         3105.351    2.483148E-11
         3108.773    2.442719E-11
           3112.2    2.403840E-11
         3115.631    2.365757E-11
         3119.064    2.327504E-11
         3122.504    2.290907E-11
         3125.945    2.254873E-11
         3129.391    2.218640E-11
         3132.841    2.184210E-11
         3136.294    2.150034E-11
         3139.752    2.115690E-11
         3143.211    2.083323E-11
         3146.678    2.050932E-11
         3150.145    2.018502E-11
         3153.618    1.987921E-11
         3157.095    1.957192E-11
         3160.573    1.926658E-11
         3164.059    1.897623E-11
         3167.546    1.868474E-11
         3171.039    1.839708E-11
         3174.533    1.812142E-11
         3178.031    1.784443E-11
         3181.536    1.757367E-11
         3185.044    1.731181E-11
         3188.555    1.704865E-11
         3192.068    1.679408E-11
         3195.587    1.654493E-11
          3199.11    1.629455E-11
         3202.637    1.605473E-11
         3206.167    1.581773E-11
           3209.7    1.557967E-11
         3213.239    1.535408E-11
         3216.781    1.512865E-11
         3220.327    1.490338E-11
         3223.877    1.468961E-11
         3227.431    1.447476E-11
         3230.989    1.426254E-11
         3234.549    1.405890E-11
         3238.115    1.385414E-11
         3241.685    1.365437E-11
         3245.259    1.346032E-11
         3248.836    1.326531E-11
         3252.418    1.307717E-11
         3256.003    1.289189E-11
         3259.591    1.270577E-11
         3263.186    1.252851E-11
         3266.781    1.235182E-11
         3270.383    1.217529E-11
         3273.988    1.200742E-11
         3277.596    1.183880E-11
         3281.209    1.167254E-11
         3284.826    1.151203E-11
         3288.449    1.135063E-11
         3292.073    1.119408E-11
           3295.7    1.104087E-11
         3299.335    1.088672E-11
          3302.97    1.073929E-11
         3306.614    1.059262E-11
         3310.257    1.044596E-11
         3313.906    1.030637E-11
         3317.559    1.016608E-11
         3321.215    1.002784E-11
         3324.878    9.894185E-12
         3328.542    9.759998E-12
         3332.211    9.629725E-12
         3335.885    9.501877E-12
          3339.56    9.373448E-12
         3343.244    9.250638E-12
         3346.927    9.128207E-12
         3350.619    9.006174E-12
         3354.311    8.889407E-12
         3358.007    8.772034E-12
          3361.71    8.656971E-12
         3365.415    8.544954E-12
         3369.126    8.432246E-12
         3372.839    8.323960E-12
         3376.557    8.216566E-12
         3380.279    8.109066E-12
         3384.004    8.006534E-12
         3387.736    7.903365E-12
         3391.469    7.802019E-12
         3395.208    7.703588E-12
         3398.953    7.604586E-12
         3402.698    7.509052E-12
         3406.449    7.414484E-12
         3410.204    7.319689E-12
         3413.964    7.229257E-12
         3417.727    7.138352E-12
         3421.493    7.048990E-12
         3425.265    6.962138E-12
         3429.043    6.874783E-12
         3432.821    6.790567E-12
         3436.606    6.707055E-12
         3440.394    6.623558E-12
         3444.185    6.543669E-12
         3447.984    6.463267E-12
         3451.783    6.384544E-12
         3455.588    6.307665E-12
         3459.398    6.230367E-12
         3463.211    6.156067E-12
         3467.029    6.081998E-12
          3470.85    6.008439E-12
         3474.678    5.937487E-12
         3478.506    5.866212E-12
         3482.339    5.796865E-12
          3486.18    5.728544E-12
         3490.023    5.659908E-12
         3493.871    5.594399E-12
          3497.72    5.528556E-12
         3501.576    5.463734E-12
         3505.437    5.400614E-12
         3509.301    5.337134E-12
          3513.17    5.276008E-12
         3517.041    5.215166E-12
         3520.918    5.154676E-12
         3524.799    5.096215E-12
         3528.685    5.037419E-12
         3532.575    4.980349E-12
         3536.468    4.924037E-12
         3540.368    4.867605E-12
         3544.269    4.813433E-12
         3548.176    4.758920E-12
         3552.088    4.705576E-12
         3556.004    4.653224E-12
         3559.924    4.600568E-12
         3563.846    4.550256E-12
         3567.777    4.499652E-12
         3571.708    4.449888E-12
         3575.644    4.401257E-12
         3579.588    4.352293E-12
         3583.534    4.305263E-12
         3587.484    4.258216E-12
         3591.439    4.211726E-12
         3595.396    4.166456E-12
          3599.36    4.120893E-12
         3603.328    4.076959E-12
         3607.301    4.033131E-12
         3611.277    3.989708E-12
         3615.256    3.947458E-12
         3619.242    3.904938E-12
         3623.234    3.863870E-12
         3627.226    3.823004E-12
         3631.223    3.782474E-12
         3635.228    3.742994E-12
         3639.237    3.703278E-12
         3643.247    3.664888E-12
         3647.261    3.626628E-12
         3651.284    3.588688E-12
         3655.307    3.551819E-12
         3659.335    3.514726E-12
         3663.371    3.478827E-12
         3667.408    3.443034E-12
         3671.453    3.407587E-12
         3675.498    3.373032E-12
         3679.552    3.338232E-12
         3683.606    3.304690E-12
         3687.665    3.271124E-12
         3691.732    3.237982E-12
           3695.8    3.205568E-12
         3699.876    3.172923E-12
         3703.953    3.141543E-12
         3708.039    3.109984E-12
         3712.124    3.079017E-12
         3716.215    3.048557E-12
         3720.313    3.017985E-12
         3724.413    2.988531E-12
         3728.521    2.958865E-12
         3732.629    2.929901E-12
         3736.746    2.901215E-12
         3740.863    2.872650E-12
         3744.985    2.844928E-12
         3749.116    2.817007E-12
         3753.247    2.789915E-12
         3757.386    2.762894E-12
         3761.526    2.736161E-12
         3765.675    2.709975E-12
         3769.824    2.683654E-12
         3773.978    2.658306E-12
         3778.141    2.632825E-12
         3782.304    2.607807E-12
         3786.473    2.583104E-12
         3790.648    2.558410E-12
         3794.824    2.534463E-12
          3799.01    2.510345E-12
         3803.196    2.486921E-12
         3807.389    2.463590E-12
         3811.586    2.440484E-12
          3815.79    2.417829E-12
         3819.994    2.395054E-12
         3824.203    2.373079E-12
         3828.419    2.350958E-12
          3832.64    2.329283E-12
         3836.865    2.307821E-12
         3841.095    2.286464E-12
         3845.331    2.265636E-12
         3849.568    2.244701E-12
          3853.81    2.224397E-12
         3858.058    2.204046E-12
         3862.312    2.184015E-12
         3866.572    2.164226E-12
         3870.832    2.144494E-12
         3875.099    2.125289E-12
         3879.369    2.105975E-12
         3883.646    2.087183E-12
         3887.927    2.068390E-12
         3892.213    2.049878E-12
         3896.504    2.031626E-12
           3900.8    2.013394E-12
           3905.1    1.995633E-12
         3909.403    1.977771E-12
         3913.712    1.960387E-12
         3918.027    1.942994E-12
         3922.346    1.925858E-12
          3926.67    1.908925E-12
         3930.999    1.892045E-12
         3935.333    1.875585E-12
         3939.669    1.859035E-12
         3944.012    1.842924E-12
          3948.36    1.826764E-12
         3952.712    1.810899E-12
          3957.07    1.795180E-12
         3961.432    1.779552E-12
         3965.799    1.764210E-12
         3970.169    1.748810E-12
         3974.546    1.733880E-12
         3978.927    1.718863E-12
         3983.314    1.704174E-12
         3987.705    1.689535E-12
         3992.101    1.675050E-12
           3996.5    1.660752E-12
         4000.906    1.645747E-12
         4005.316    1.628318E-12
         4009.732    1.610874E-12
         4014.152    1.593881E-12
         4018.577    1.576905E-12
         4023.008    1.560237E-12
          4027.44    1.543718E-12
          4031.88    1.527373E-12
         4036.325    1.511283E-12
         4040.775    1.495259E-12
         4045.229    1.479588E-12
         4049.689    1.463907E-12
         4054.153    1.448622E-12
          4058.62    1.433367E-12
         4063.094    1.418373E-12
         4067.574    1.403497E-12
         4072.058    1.388796E-12
         4076.547    1.374305E-12
         4081.041    1.359897E-12
         4085.538    1.345786E-12
         4090.042    1.331666E-12
         4094.548    1.317935E-12
         4099.064    1.304182E-12
         4103.583    1.290698E-12
         4108.107    1.277278E-12
         4112.636    1.264068E-12
         4117.165    1.251019E-12
         4121.706    1.238066E-12
          4126.25    1.225312E-12
         4130.799    1.212613E-12
         4135.353    1.200194E-12
         4139.911    1.187772E-12
         4144.473    1.175677E-12
          4149.04    1.163586E-12
         4153.616    1.151702E-12
         4158.195    1.139880E-12
         4162.779    1.128244E-12
         4167.366    1.116734E-12
         4171.962    1.105332E-12
         4176.559    1.094102E-12
         4181.163    1.082939E-12
         4185.772    1.071990E-12
         4190.385    1.061066E-12
         4195.006    1.050373E-12
         4199.629    1.039689E-12
         4204.261    1.030851E-12
         4208.894    1.022153E-12
         4213.531    1.013624E-12
         4218.178    1.005117E-12
         4222.826    9.967374E-13
         4227.484    9.884157E-13
         4232.142    9.801863E-13
          4236.81    9.720512E-13
         4241.478    9.639688E-13
         4246.151    9.560174E-13
         4250.835    9.480708E-13
         4255.519    9.402997E-13
         4260.212    9.325024E-13
         4264.907    9.248905E-13
         4269.606    9.172528E-13
         4274.315    9.097849E-13
         4279.025    9.023165E-13
         4283.744    8.949791E-13
         4288.464    8.876657E-13
         4293.194    8.804597E-13
         4297.925    8.733029E-13
         4302.661    8.662328E-13
         4307.406    8.592190E-13
         4312.152    8.522776E-13
         4316.909    8.454132E-13
         4321.665    8.386021E-13
         4326.432    8.318897E-13
         4331.199    8.252084E-13
         4335.971    8.186443E-13
         4340.753    8.120783E-13
         4345.537    8.056401E-13
          4350.33    7.991859E-13
         4355.123    7.928770E-13
         4359.926    7.865411E-13
          4364.73    7.803705E-13
          4369.54    7.741822E-13
         4374.359    7.681136E-13
         4379.179    7.620469E-13
         4384.009    7.560886E-13
          4388.84    7.501443E-13
          4393.68    7.442923E-13
         4398.521    7.384632E-13
         4403.368    7.327323E-13
         4408.225    7.270283E-13
         4413.082    7.214013E-13
          4417.95    7.158014E-13
         4422.817    7.102764E-13
         4427.696    7.047912E-13
         4432.574    6.993660E-13
         4437.458    6.939873E-13
         4442.353    6.886576E-13
         4447.248    6.833942E-13
         4452.153    6.781644E-13
         4457.059    6.729961E-13
          4461.97    6.678660E-13
         4466.891    6.627975E-13
         4471.813    6.577656E-13
         4476.745    6.527954E-13
         4481.678    6.478588E-13
         4486.618    6.429892E-13
         4491.564    6.381429E-13
         4496.514    6.333684E-13
         4501.473    6.293638E-13
         4506.433    6.271909E-13
         4511.401    6.249942E-13
         4516.375    6.228238E-13
         4521.355    6.206342E-13
         4526.337    6.184875E-13
         4531.325    6.163170E-13
          4536.32    6.141734E-13
         4541.321    6.120084E-13
         4546.328    6.098770E-13
         4551.339    6.077281E-13
         4556.357    6.056199E-13
          4561.38    6.034900E-13
         4566.406    6.013869E-13
          4571.44    5.992648E-13
         4576.479    5.971729E-13
         4581.527    5.950641E-13
         4586.575    5.929851E-13
         4591.632    5.908922E-13
         4596.691    5.888270E-13
         4601.758    5.867503E-13
         4606.832    5.846953E-13
          4611.91    5.826336E-13
         4616.994    5.805918E-13
         4622.084    5.785430E-13
          4627.18    5.765047E-13
         4632.278    5.744718E-13
         4637.385    5.724543E-13
         4642.497    5.704422E-13
         4647.615    5.684386E-13
         4652.738    5.664428E-13
         4657.868    5.644489E-13
         4663.002    5.624639E-13
         4668.141    5.604746E-13
         4673.287    5.585086E-13
         4678.438    5.565385E-13
         4683.596    5.545930E-13
         4688.759    5.526358E-13
         4693.928    5.507005E-13
           4699.1    5.487463E-13
         4704.281    5.468340E-13
         4709.467    5.449002E-13
         4714.658    5.429983E-13
         4719.856    5.410659E-13
         4725.059    5.391892E-13
         4730.268    5.372814E-13
          4735.48    5.354117E-13
         4740.701    5.335160E-13
         4745.927    5.316629E-13
         4751.159    5.297896E-13
         4756.396    5.279383E-13
          4761.64    5.260796E-13
         4766.889    5.242474E-13
         4772.142    5.224132E-13
         4777.402    5.205900E-13
         4782.669    5.187691E-13
         4787.941    5.169497E-13
          4793.22    5.151482E-13
         4798.504    5.133458E-13
         4803.791    5.115674E-13
         4809.087    5.097771E-13
         4814.389    5.080078E-13
         4819.696    5.062170E-13
         4825.009    5.044719E-13
         4830.328    5.027037E-13
         4835.653    5.009738E-13
         4840.981    4.992260E-13
         4846.318    4.975047E-13
         4851.661    4.957715E-13
         4857.009    4.940505E-13
         4862.364    4.923337E-13
         4867.724    4.906306E-13
          4873.09    4.889360E-13
         4878.457    4.872419E-13
         4883.838    4.855657E-13
         4889.222    4.838811E-13
         4894.612    4.822229E-13
         4900.008    4.805452E-13
         4905.409    4.789134E-13
         4910.814    4.772618E-13
         4916.228    4.756301E-13
         4921.648    4.739892E-13
         4927.074    4.723651E-13
         4932.505    4.707422E-13
          4937.94    4.691266E-13
         4943.386    4.675254E-13
         4948.833    4.659246E-13
         4954.289    4.643457E-13
          4959.75    4.627533E-13
         4965.216    4.611853E-13
         4970.692    4.596005E-13
         4976.169    4.580509E-13
         4981.658    4.564910E-13
         4987.146    4.549477E-13
         4992.642    4.534062E-13
         4998.148    4.518675E-13
         5003.656    4.505924E-13
         5009.174    4.494326E-13
         5014.694    4.482930E-13
         5020.219    4.471347E-13
         5025.756    4.460065E-13
         5031.294    4.448617E-13
         5036.843    4.437249E-13
         5042.394    4.425866E-13
         5047.955    4.414536E-13
         5053.517    4.403233E-13
         5059.085    4.391820E-13
         5064.665    4.380625E-13
         5070.246    4.369283E-13
         5075.838    4.358161E-13
         5081.431    4.346889E-13
         5087.036    4.335673E-13
         5092.641    4.324473E-13
         5098.252    4.313312E-13
         5103.875    4.302225E-13
         5109.499    4.291041E-13
         5115.134    4.280057E-13
         5120.771    4.268936E-13
         5126.418    4.257979E-13
         5132.067    4.246930E-13
         5137.722    4.235899E-13
         5143.389    4.224918E-13
         5149.056    4.213908E-13
         5154.735    4.203058E-13
         5160.415    4.192086E-13
         5166.107    4.181295E-13
         5171.799    4.170420E-13
         5177.498    4.159625E-13
         5183.208    4.148795E-13
         5188.919    4.137903E-13
         5194.643    4.127184E-13
         5200.366    4.116363E-13
         5206.102    4.105697E-13
         5211.838    4.094963E-13
         5217.581    4.084326E-13
         5223.336    4.073671E-13
         5229.091    4.062960E-13
         5234.859    4.052375E-13
         5240.627    4.041691E-13
         5246.407    4.031167E-13
         5252.188    4.020619E-13
         5257.975    4.010156E-13
         5263.774    3.999648E-13
         5269.574    3.989031E-13
         5275.383    3.978637E-13
         5281.199    3.968152E-13
         5287.018    3.957799E-13
          5292.85    3.947388E-13
         5298.682    3.936950E-13
         5304.523    3.926607E-13
         5310.371    3.916178E-13
         5316.228    3.905980E-13
         5322.085    3.895674E-13
          5327.95    3.885330E-13
         5333.826    3.875076E-13
         5339.703    3.864790E-13
          5345.59    3.854675E-13
         5351.483    3.844456E-13
         5357.385    3.834256E-13
         5363.289    3.824089E-13
         5369.198    3.813902E-13
         5375.117    3.803781E-13
         5381.042    3.793588E-13
         5386.978    3.783564E-13
         5392.914    3.773497E-13
         5398.858    3.763380E-13
         5404.807    3.753391E-13
         5410.766    3.743329E-13
          5416.73    3.733388E-13
         5422.702    3.723393E-13
          5428.68    3.713375E-13
         5434.665    3.703455E-13
         5440.656    3.693468E-13
         5446.651    3.683610E-13
         5452.655    3.673698E-13
         5458.666    3.663774E-13
         5464.684    3.653929E-13
         5470.708    3.644014E-13
         5476.739    3.634163E-13
         5482.777    3.624294E-13
         5488.818    3.614438E-13
         5494.869    3.604675E-13
         5500.926    3.594721E-13
         5506.991    3.584121E-13
         5513.062    3.573522E-13
         5519.139    3.562916E-13
         5525.221    3.552442E-13
         5531.312    3.541903E-13
          5537.41    3.531394E-13
         5543.514    3.520875E-13
         5549.625    3.510310E-13
         5555.743    3.499934E-13
         5561.868    3.489498E-13
         5567.996    3.479074E-13
         5574.134    3.468715E-13
         5580.279    3.458322E-13
         5586.431    3.447981E-13
          5592.59    3.437611E-13
         5598.755    3.427262E-13
         5604.927    3.413610E-13
         5611.103    3.399120E-13
         5617.289    3.384767E-13
         5623.481    3.370441E-13
         5629.681    3.356111E-13
         5635.887    3.341946E-13
           5642.1    3.327802E-13
         5648.316    3.313770E-13
         5654.543    3.299828E-13
         5660.777    3.285899E-13
         5667.018    3.272115E-13
         5673.265    3.258357E-13
         5679.519    3.244612E-13
          5685.78    3.231017E-13
         5692.045    3.217449E-13
          5698.32    3.203968E-13
         5704.602    3.190585E-13
         5710.891    3.177219E-13
         5717.187    3.163980E-13
         5723.489    3.150798E-13
         5729.799    3.137646E-13
         5736.112    3.124644E-13
         5742.436    3.111633E-13
         5748.766    3.098660E-13
         5755.104    3.085844E-13
         5761.448    3.073062E-13
           5767.8    3.060392E-13
         5774.155    3.047754E-13
         5780.521    3.035113E-13
         5786.893    3.022673E-13
         5793.272    3.010227E-13
         5799.659    2.997772E-13
         5806.053    2.985530E-13
         5812.453    2.973286E-13
         5818.858    2.961063E-13
         5825.272    2.949006E-13
         5831.694    2.936963E-13
         5838.123    2.924953E-13
         5844.559    2.913063E-13
         5851.002    2.901200E-13
         5857.453    2.889391E-13
         5863.907    2.877677E-13
         5870.368    2.866007E-13
         5876.843    2.854452E-13
         5883.321    2.842934E-13
         5889.807    2.831441E-13
           5896.3    2.820088E-13
           5902.8    2.808753E-13
         5909.304    2.797460E-13
         5915.819    2.786290E-13
          5922.34    2.775141E-13
         5928.869    2.764042E-13
         5935.405    2.753059E-13
         5941.945    2.742112E-13
         5948.492    2.731240E-13
         5955.053    2.720420E-13
         5961.618    2.709639E-13
          5968.19    2.698977E-13
         5974.767    2.688347E-13
         5981.356    2.677725E-13
         5987.947    2.667237E-13
         5994.548    2.656796E-13
         6001.157    2.645751E-13
         6007.769    2.631880E-13
         6014.396    2.618125E-13
         6021.022    2.604462E-13
         6027.663    2.590891E-13
         6034.308    2.577414E-13
         6040.954    2.564012E-13
         6047.617    2.550714E-13
          6054.28    2.537537E-13
         6060.958    2.524411E-13
         6067.636    2.511362E-13
         6074.329    2.498425E-13
         6081.021    2.485581E-13
         6087.722    2.472832E-13
         6094.437    2.460151E-13
         6101.152    2.447540E-13
         6107.878    2.435029E-13
         6114.611    2.422601E-13
         6121.355    2.410222E-13
           6128.1    2.397943E-13
         6134.853    2.385752E-13
         6141.616    2.373625E-13
         6148.386    2.361628E-13
         6155.167    2.349668E-13
          6161.95    2.337758E-13
         6168.746    2.325914E-13
          6175.54    2.314198E-13
         6182.348    2.302518E-13
         6189.163    2.290891E-13
         6195.986    2.279375E-13
          6202.82    2.267909E-13
         6209.655    2.256518E-13
         6216.497    2.245182E-13
          6223.35    2.233913E-13
         6230.211    2.222715E-13
         6237.083    2.211570E-13
         6243.955    2.200520E-13
         6250.838    2.189530E-13
         6257.729    2.178596E-13
         6264.624    2.167704E-13
          6271.53    2.156852E-13
         6278.444    2.146109E-13
         6285.366    2.135409E-13
         6292.294    2.124752E-13
         6299.231    2.114161E-13
         6306.176    2.103651E-13
         6313.124    2.093176E-13
         6320.084    2.082722E-13
         6327.051    2.072372E-13
         6334.026    2.062068E-13
         6341.009    2.051804E-13
         6347.999    2.041590E-13
         6354.994    2.031446E-13
            6362.    2.021332E-13
         6369.013    2.011250E-13
         6376.034    2.001251E-13
         6383.063    1.991294E-13
           6390.1    1.981381E-13
         6397.145    1.971520E-13
         6404.193    1.961691E-13
         6411.253    1.951889E-13
         6418.321    1.942158E-13
         6425.397    1.932467E-13
          6432.48    1.922810E-13
         6439.571    1.913198E-13
          6446.67    1.903640E-13
         6453.774    1.894127E-13
         6460.889    1.884643E-13
         6468.011    1.875164E-13
         6475.142    1.865747E-13
          6482.28    1.856379E-13
         6489.426    1.847068E-13
         6496.576    1.837752E-13
         6503.738    1.826740E-13
         6510.908    1.814209E-13
         6518.085    1.801756E-13
         6525.271    1.789356E-13
         6532.465    1.777006E-13
         6539.666    1.764716E-13
         6546.872    1.752554E-13
         6554.089    1.740432E-13
         6561.314    1.728365E-13
         6568.548    1.716405E-13
         6575.789    1.704474E-13
         6583.038    1.692622E-13
         6590.295    1.680868E-13
         6597.557    1.669188E-13
          6604.83    1.657553E-13
         6612.111    1.645969E-13
           6619.4    1.634439E-13
         6626.698    1.623052E-13
         6634.003    1.611697E-13
         6641.316    1.600386E-13
         6648.634    1.589210E-13
         6655.964    1.578051E-13
         6663.301    1.566967E-13
         6670.647    1.555974E-13
         6678.001    1.545046E-13
         6685.363    1.534192E-13
         6692.729    1.523399E-13
         6700.107    1.512646E-13
         6707.494    1.501995E-13
         6714.888    1.491414E-13
         6722.291    1.480904E-13
         6729.701    1.470475E-13
          6737.12    1.460096E-13
         6744.543    1.449791E-13
         6751.979    1.439549E-13
         6759.422    1.429382E-13
         6766.874    1.419271E-13
         6774.333    1.409240E-13
         6781.802    1.399280E-13
         6789.278    1.389370E-13
         6796.759    1.379552E-13
         6804.251    1.369793E-13
         6811.752    1.360097E-13
         6819.262    1.350469E-13
          6826.78    1.340925E-13
         6834.306    1.331444E-13
         6841.836    1.322030E-13
         6849.378    1.312680E-13
         6856.929    1.303403E-13
         6864.488    1.294172E-13
         6872.056    1.285001E-13
         6879.632    1.275918E-13
         6887.216    1.266909E-13
         6894.805    1.257963E-13
         6902.405    1.249064E-13
         6910.015    1.240207E-13
         6917.632    1.231455E-13
         6925.258    1.222762E-13
         6932.893    1.214138E-13
         6940.536    1.205586E-13
         6948.183    1.197086E-13
         6955.839    1.188641E-13
         6963.511    1.180259E-13
         6971.188    1.171954E-13
         6978.873    1.163714E-13
         6986.566    1.155537E-13
         6994.261    1.147421E-13
         7001.975    1.138967E-13
         7009.694    1.129483E-13
         7017.422    1.120061E-13
         7025.158    1.110726E-13
         7032.902    1.101482E-13
         7040.652    1.092331E-13
          7048.41    1.083233E-13
         7056.184    1.074222E-13
         7063.962    1.065292E-13
          7071.75    1.056431E-13
         7079.542    1.047642E-13
          7087.35    1.038924E-13
          7095.16    1.030300E-13
         7102.981    1.021745E-13
         7110.812    1.013252E-13
         7118.647    1.004836E-13
         7126.499    9.964856E-14
         7134.351    9.882194E-14
          7142.22    9.800108E-14
         7150.089    9.718601E-14
         7157.968    9.638001E-14
         7165.863    9.557990E-14
         7173.758    9.478784E-14
         7181.671    9.400153E-14
         7189.584    9.322038E-14
         7197.514    9.244767E-14
         7205.444    9.168168E-14
         7213.384    9.092137E-14
          7221.34    9.016643E-14
         7229.297    8.942070E-14
         7237.271    8.867824E-14
         7245.245    8.794336E-14
         7253.236    8.721407E-14
         7261.228    8.649111E-14
         7269.229    8.577405E-14
         7277.243    8.506455E-14
         7285.265    8.435952E-14
           7293.3    8.365961E-14
         7301.336    8.296673E-14
         7309.381    8.227966E-14
         7317.439    8.159971E-14
         7325.506    8.092369E-14
         7333.586    8.025279E-14
         7341.667    7.958886E-14
         7349.764    7.892946E-14
         7357.863    7.827614E-14
          7365.97    7.762942E-14
          7374.09    7.698680E-14
         7382.219    7.634864E-14
         7390.362    7.571638E-14
         7398.505    7.509047E-14
         7406.661    7.447026E-14
         7414.826    7.385414E-14
         7422.996    7.324301E-14
         7431.184    7.263721E-14
         7439.372    7.203851E-14
         7447.573    7.144281E-14
         7455.783    7.085272E-14
         7464.002    7.026759E-14
         7472.231    6.968693E-14
         7480.464    6.911125E-14
          7488.71    6.853976E-14
         7496.966    6.797436E-14
         7505.231    6.741066E-14
         7513.505    6.684941E-14
         7521.788    6.629226E-14
         7530.076    6.573944E-14
         7538.377    6.519094E-14
         7546.688    6.464639E-14
         7555.007    6.410583E-14
         7563.335    6.356920E-14
         7571.673    6.303650E-14
         7580.021    6.250777E-14
         7588.373    6.198370E-14
         7596.738    6.146303E-14
         7605.113    6.094619E-14
         7613.497    6.043321E-14
          7621.89    5.992406E-14
         7630.292    5.941862E-14
         7638.704    5.891729E-14
         7647.121    5.841979E-14
         7655.551    5.792573E-14
         7663.991    5.743535E-14
         7672.439    5.694862E-14
         7680.897    5.646553E-14
         7689.365    5.598620E-14
         7697.838    5.551081E-14
         7706.324    5.503867E-14
         7714.819    5.457010E-14
         7723.324    5.410504E-14
         7731.838    5.364329E-14
         7740.362    5.318498E-14
         7748.895    5.273052E-14
         7757.434    5.227959E-14
         7765.985    5.183187E-14
         7774.546    5.138746E-14
         7783.117    5.094637E-14
         7791.697    5.050864E-14
         7800.287    5.007407E-14
         7808.886    4.964312E-14
          7817.49    4.921562E-14
         7826.108    4.879116E-14
         7834.736    4.836985E-14
         7843.373    4.795176E-14
          7852.02    4.753686E-14
         7860.676    4.712498E-14
         7869.337    4.671659E-14
         7878.013    4.631130E-14
         7886.697    4.590917E-14
         7895.392    4.550998E-14
         7904.096    4.511383E-14
         7912.809    4.472078E-14
         7921.532    4.433074E-14
         7930.261    4.394377E-14
         7939.003    4.355984E-14
         7947.755    4.317880E-14
         7956.517    4.280089E-14
         7965.288    4.242578E-14
         7974.069    4.205354E-14
          7982.86    4.168423E-14
         7991.656    4.131802E-14
         8000.466    4.095026E-14
         8009.286    4.051137E-14
         8018.115    4.007604E-14
         8026.954    3.964419E-14
         8035.803    3.921579E-14
         8044.658    3.879102E-14
         8053.526    3.836950E-14
         8062.404    3.795136E-14
         8071.292    3.753644E-14
          8080.19    3.712488E-14
         8089.098    3.671695E-14
         8098.016    3.631224E-14
         8106.938    3.591110E-14
         8115.875    3.551298E-14
         8124.822    3.511804E-14
         8133.779    3.472633E-14
         8142.746    3.433784E-14
         8151.723    3.395239E-14
         8160.709    3.357022E-14
         8169.701    3.319119E-14
         8178.708    3.281532E-14
         8187.724    3.244249E-14
          8196.75    3.207268E-14
         8205.786    3.170594E-14
         8214.832    3.134213E-14
         8223.884    3.098142E-14
          8232.95    3.062354E-14
         8242.026    3.026868E-14
         8251.112    2.991674E-14
         8260.208    2.956765E-14
         8269.314    2.922155E-14
         8278.431    2.887823E-14
         8287.552    2.853801E-14
         8296.688    2.820036E-14
         8305.835    2.786554E-14
         8314.991    2.753351E-14
         8324.153    2.720436E-14
         8333.334    2.687769E-14
         8342.521    2.655388E-14
         8351.713    2.625582E-14
          8360.92    2.605907E-14
         8370.138    2.586254E-14
         8379.365    2.566661E-14
         8388.603    2.547111E-14
          8397.85    2.527595E-14
         8407.104    2.508130E-14
         8416.371    2.488694E-14
         8425.649    2.469298E-14
         8434.934    2.449951E-14
         8444.236    2.430624E-14
         8453.546    2.411338E-14
         8462.865    2.392088E-14
         8472.189    2.372895E-14
         8481.525    2.353734E-14
          8490.88    2.334604E-14
          8500.24    2.315504E-14
         8509.611    2.296257E-14
         8518.987    2.277054E-14
         8528.384    2.257873E-14
          8537.78    2.238746E-14
         8547.188    2.219654E-14
         8556.615    2.200576E-14
         8566.043    2.181558E-14
         8575.486    2.162567E-14
          8584.94    2.143605E-14
         8594.409    2.124674E-14
         8603.879    2.105801E-14
         8613.359    2.086958E-14
         8622.854    2.068140E-14
          8632.36    2.049355E-14
         8641.882    2.030595E-14
         8651.403    2.011838E-14
         8660.937    1.992813E-14
         8670.484    1.973830E-14
         8680.043    1.954875E-14
         8689.611    1.935970E-14
         8699.191    1.917100E-14
         8708.781    1.898269E-14
         8718.382    1.879482E-14
         8727.988    1.860740E-14
          8737.61    1.842033E-14
         8747.242    1.823366E-14
         8756.886    1.804725E-14
         8766.539    1.786135E-14
         8776.203    1.767585E-14
         8785.879    1.749066E-14
          8795.56    1.730591E-14
         8805.256    1.712151E-14
         8814.963    1.693755E-14
         8824.681    1.675387E-14
         8834.408    1.657056E-14
         8844.147    1.638762E-14
         8853.893    1.620514E-14
         8863.653    1.602296E-14
         8873.425    1.584107E-14
         8883.207    1.565956E-14
            8893.    1.547842E-14
         8902.804    1.529765E-14
         8912.618    1.511725E-14
         8922.438    1.493723E-14
         8932.274    1.475751E-14
         8942.122    1.457812E-14
         8951.979    1.439854E-14
         8961.849    1.421739E-14
         8971.728    1.403662E-14
         8981.618    1.385629E-14
         8991.515    1.367638E-14
         9001.427    1.349921E-14
         9011.351    1.333685E-14
         9021.284    1.317496E-14
         9031.229    1.301336E-14
         9041.186    1.285213E-14
         9051.147    1.269129E-14
         9061.126    1.253079E-14
         9071.115    1.237062E-14
         9081.115    1.221072E-14
         9091.126    1.205123E-14
         9101.148    1.189214E-14
         9111.182    1.173336E-14
         9121.221    1.157494E-14
         9131.276    1.141682E-14
         9141.343    1.125901E-14
          9151.42    1.110154E-14
         9161.509    1.094443E-14
         9171.608    1.078758E-14
         9181.719    1.063114E-14
         9191.836    1.047502E-14
          9201.97    1.031920E-14
         9212.113    1.016372E-14
          9222.27    1.000844E-14
         9232.436    9.853603E-15
         9242.613    9.699049E-15
         9252.798    9.544434E-15
         9262.998    9.388999E-15
          9273.21    9.233941E-15
         9283.433    9.079203E-15
         9293.667    8.924840E-15
         9303.912    8.770861E-15
         9314.169    8.617191E-15
         9324.432    8.463940E-15
         9334.711    8.311001E-15
         9345.002    8.158374E-15
         9355.304    8.006094E-15
         9365.617    7.854171E-15
         9375.941    7.702590E-15
         9386.278    7.551344E-15
          9396.62    7.400473E-15
         9406.979    7.249861E-15
          9417.35    7.099615E-15
         9427.731    6.949714E-15
         9438.124    6.800097E-15
         9448.529    6.650814E-15
          9458.94    6.501924E-15
         9469.368    6.353285E-15
         9479.807    6.205005E-15
         9490.258    6.056965E-15
          9500.72    5.911684E-15
         9511.193    5.798623E-15
         9521.679    5.686529E-15
          9532.17    5.575333E-15
         9542.679    5.464966E-15
         9553.198    5.355490E-15
         9563.729    5.246880E-15
         9574.272    5.139143E-15
         9584.828    5.032261E-15
         9595.395    4.926250E-15
         9605.967    4.821158E-15
         9616.557    4.716885E-15
         9627.158    4.613428E-15
         9637.771    4.510846E-15
         9648.396    4.409075E-15
         9659.032    4.308158E-15
         9669.681    4.208063E-15
         9680.335    4.108864E-15
         9691.007    4.010410E-15
          9701.69    3.912831E-15
         9712.386    3.816030E-15
         9723.093    3.720057E-15
         9733.812    3.624901E-15
         9744.536    3.530602E-15
         9755.279    3.436095E-15
         9766.033    3.341492E-15
           9776.8    3.247771E-15
         9787.577    3.154932E-15
         9798.367    3.062979E-15
         9809.169    2.971877E-15
         9819.978    2.881721E-15
         9830.803    2.792378E-15
         9841.641    2.703893E-15
          9852.49    2.616268E-15
         9863.352    2.529516E-15
         9874.225    2.443605E-15
          9885.11    2.358547E-15
         9896.003    2.274364E-15
         9906.912    2.190983E-15
         9917.828    2.108474E-15
         9928.767    2.026734E-15
         9939.713    1.945856E-15
          9950.67    1.865802E-15
         9961.634    1.786621E-15
          9972.61    1.708249E-15
          9983.61    1.630628E-15
         9994.616    1.556077E-15
         10005.63    1.501933E-15
         10016.66    1.464233E-15
         10027.71    1.426810E-15
         10038.76    1.389740E-15
         10049.82    1.352982E-15
          10060.9    1.316508E-15
         10071.99    1.280384E-15
          10083.1    1.244543E-15
         10094.21    1.209059E-15
         10105.34    1.173863E-15
         10116.47    1.139022E-15
         10127.62    1.104502E-15
         10138.79    1.070277E-15
         10149.96    1.036410E-15
         10161.16    1.002839E-15
         10172.35    9.696288E-16
         10183.56    9.367467E-16
         10194.79    9.041662E-16
         10206.03    8.719484E-16
         10217.29    8.400330E-16
         10228.54    8.084846E-16
         10239.83    7.772391E-16
         10251.11    7.463662E-16
          10262.4    7.158279E-16
         10273.72    6.856032E-16
         10285.04    6.557478E-16
         10296.39    6.262066E-16
         10307.73    5.970365E-16
          10319.1    5.681838E-16
         10330.47    5.397073E-16
         10341.85    5.115778E-16
         10353.26    4.837711E-16
         10364.67    4.563406E-16
          10376.1    4.292361E-16
         10387.53    4.025123E-16
         10398.99    3.761158E-16
         10410.45    3.501017E-16
         10421.92    3.244421E-16
         10433.41    2.991195E-16
         10444.91    2.741803E-16
         10456.43    2.495771E-16
         10467.95    2.253613E-16
          10479.5    2.014852E-16
         10491.04    1.779986E-16
          10502.6    1.590522E-16
         10514.19    1.546402E-16
         10525.77    1.502822E-16
         10537.38    1.459696E-16
         10548.99    1.417109E-16
         10560.63    1.374985E-16
         10572.26    1.333402E-16
         10583.91    1.292328E-16
         10595.59    1.251717E-16
         10607.26    1.211657E-16
         10618.96    1.172067E-16
         10630.66    1.133027E-16
         10642.38    1.094505E-16
         10654.11    1.056458E-16
         10665.85    1.018969E-16
         10677.62    9.819603E-17
         10689.38    9.455145E-17
         10701.17    9.095549E-17
         10712.96    8.741581E-17
         10724.77    8.392870E-17
          10736.6    8.049130E-17
         10748.43    7.711055E-17
         10760.27    7.378325E-17
         10772.14    7.050618E-17
         10784.01    6.728624E-17
          10795.9    6.411701E-17
         10807.81    6.100216E-17
         10819.72    5.794460E-17
         10831.65    5.493887E-17
         10843.57    5.199381E-17
         10855.53    4.909789E-17
         10867.51    4.625714E-17
         10879.48    4.347472E-17
         10891.48    4.074536E-17
         10903.48    3.807438E-17
          10915.5    3.545930E-17
         10927.52    3.290056E-17
         10939.58    3.039592E-17
         10951.64    2.794777E-17
         10963.71    2.555897E-17
         10975.79    2.322734E-17
         10987.88    2.095288E-17
           11000.    1.873423E-17
