#  Table wf3f675wsys.tab  Mon 12:22:23 02-Jun-97

#      WAVELENGTH      THROUGHPUT
#       angstroms                

            1850.     4.464623E-6
         1851.651     3.753645E-6
         1853.301     3.036118E-6
         1854.956     2.309923E-6
         1856.611     1.577373E-6
         1858.267     8.374146E-7
         1859.925     8.956351E-8
         1861.584     8.119142E-8
         1863.246     1.081421E-7
         1864.909     1.353629E-7
         1866.572     1.628351E-7
         1868.237     1.905799E-7
         1869.904     2.186134E-7
         1871.573     4.376965E-7
         1873.242     6.705544E-7
         1874.913     9.057316E-7
         1876.585     1.143257E-6
          1878.26     1.383321E-6
         1879.937     1.625103E-6
         1881.613     1.770210E-6
         1883.292     1.912678E-6
         1884.973     2.056426E-6
         1886.654     2.201289E-6
         1888.338     2.347452E-6
         1890.023     2.490591E-6
         1891.709     2.326956E-6
         1893.396     2.161804E-6
         1895.086     1.995046E-6
         1896.775     1.826977E-6
         1898.469     1.657068E-6
         1900.163     1.486604E-6
         1901.857     1.323161E-6
         1903.555     1.158021E-6
         1905.254     9.913781E-7
         1906.953     8.233484E-7
         1908.655     6.537090E-7
         1910.357     5.146093E-7
         1912.061     4.951742E-7
         1913.768     4.755414E-7
         1915.476     4.557199E-7
         1917.184     4.357221E-7
         1918.894     4.155342E-7
         1920.606     3.830269E-7
          1922.32     3.279313E-7
         1924.035     2.723376E-7
         1925.752     2.162719E-7
          1927.47     1.596726E-7
         1929.189     1.025981E-7
          1930.91     1.012563E-7
         1932.634     1.502625E-7
         1934.358     1.996997E-7
         1936.084     2.495377E-7
         1937.811     2.998163E-7
          1939.54     3.505626E-7
          1941.27     3.192770E-7
         1943.003     2.576629E-7
         1944.737     1.954910E-7
          1946.47     1.328391E-7
         1948.207     6.955078E-8
         1949.947     5.662721E-9
         1951.685     1.083577E-7
         1953.427     2.173704E-7
         1955.171     3.273429E-7
         1956.913     4.381461E-7
          1958.66     5.500548E-7
         1960.408     6.120010E-7
         1962.157     5.064267E-7
         1963.908     3.998312E-7
         1965.658     2.924128E-7
         1967.413     1.839059E-7
         1969.169     7.442642E-8
         1970.925     2.067427E-8
         1972.684     1.757320E-8
         1974.444     1.444606E-8
         1976.205     1.129081E-8
         1977.969     8.103610E-9
         1979.734     4.891844E-9
           1981.5     6.279110E-9
         1983.268     8.505394E-9
         1985.037     1.074983E-8
         1986.809     1.301497E-8
         1988.581     1.529821E-8
         1990.355     1.668126E-8
         1992.131     1.438149E-8
         1993.908     1.206113E-8
         1995.688     9.717224E-9
         1997.467     7.356945E-9
          1999.25     4.972948E-9
         2001.034     1.006831E-8
         2002.818     2.067259E-8
         2004.606     3.140316E-8
         2006.396     4.223514E-8
         2008.184     5.316069E-8
         2009.976     6.420793E-8
         2011.769     9.810267E-8
         2013.565     1.326602E-7
         2015.362     1.675630E-7
         2017.158     2.027674E-7
         2018.958     2.383610E-7
          2020.76     2.409106E-7
         2022.563     1.975188E-7
         2024.368     1.536595E-7
         2026.173     1.093897E-7
         2027.982     6.464725E-8
         2029.791     1.948730E-8
         2031.602     1.430728E-8
         2033.414     1.439003E-8
         2035.228     1.447314E-8
         2037.044     1.455667E-8
         2038.861     1.464052E-8
         2040.681     2.197999E-8
         2042.502     4.158844E-8
         2044.324     6.137551E-8
         2046.147     8.135126E-8
         2047.974     1.015315E-7
           2049.8     1.218915E-7
          2051.63     1.177962E-7
         2053.461     1.106200E-7
         2055.291     1.033801E-7
         2057.125     9.605994E-8
         2058.961     8.866667E-8
         2060.798     7.836720E-8
         2062.637     6.424538E-8
         2064.477     4.999789E-8
         2066.318     3.561657E-8
         2068.164     2.108149E-8
         2070.007     6.508360E-9
         2071.855     1.058699E-8
         2073.704     1.470259E-8
         2075.553     1.885314E-8
         2077.405     2.304098E-8
         2079.259     2.727018E-8
         2081.113     2.797172E-8
         2082.971     2.629420E-8
         2084.829     2.460194E-8
         2086.688     2.289401E-8
          2088.55     2.116897E-8
         2090.414     2.821057E-8
         2092.279     6.617456E-8
         2094.145     1.044612E-7
         2096.014     1.431124E-7
         2097.885     1.820948E-7
         2099.756     2.213892E-7
          2101.63     1.913190E-7
         2103.503     1.505414E-7
         2105.381     1.093688E-7
          2107.26     6.783656E-8
         2109.139     2.597561E-8
         2111.022     9.339060E-9
         2112.906     1.422701E-8
         2114.789     1.914874E-8
         2116.677     2.411720E-8
         2118.564     2.912295E-8
         2120.455     3.188940E-8
         2122.348     2.744720E-8
         2124.241     2.297258E-8
         2126.135     1.846136E-8
         2128.033     1.391162E-8
         2129.932     9.324903E-9
         2131.832     1.001255E-8
         2133.734     1.090211E-8
         2135.637     1.179815E-8
         2137.544     1.270197E-8
          2139.45     1.361425E-8
         2141.359     1.662561E-8
          2143.27     2.051226E-8
         2145.182     2.442696E-8
         2147.096     2.837388E-8
         2149.011     3.234859E-8
         2150.929     3.629131E-8
         2152.848     4.019117E-8
         2154.768     4.411937E-8
         2156.692     4.808110E-8
         2158.615     5.206389E-8
         2160.541     5.255783E-8
         2162.469     4.400209E-8
         2164.397     3.539663E-8
          2166.33     2.671390E-8
         2168.263     1.797433E-8
         2170.196     9.995355E-9
         2172.133     9.161012E-9
          2174.07     8.321736E-9
         2176.011     7.476237E-9
         2177.953     6.625121E-9
         2179.895     5.769014E-9
          2181.84     6.829798E-9
         2183.787     8.007528E-9
         2185.735     9.191730E-9
         2187.686     1.038362E-8
         2189.637     1.158190E-8
          2191.59     1.815093E-8
         2193.546     2.599071E-8
         2195.503     3.387279E-8
         2197.462     4.179436E-8
         2199.423     4.976547E-8
         2201.385     4.590524E-8
         2203.348     3.697482E-8
         2205.315     2.788477E-8
         2207.283     1.864086E-8
         2209.252     9.248105E-9
         2211.222     7.480055E-9
         2213.196     1.048819E-8
          2215.17     1.354121E-8
         2217.147     1.664390E-8
         2219.125     1.979427E-8
         2221.104     2.691995E-8
         2223.086     3.730834E-8
         2225.071     4.785982E-8
         2227.055     5.854897E-8
         2229.042     6.940932E-8
         2231.031     6.777030E-8
         2233.021     5.425049E-8
         2235.015     4.050939E-8
         2237.008     2.657963E-8
         2239.003     1.244173E-8
         2241.002     6.800783E-9
         2242.999     9.808003E-9
         2245.002     1.286279E-8
         2247.005     1.595647E-8
         2249.009     1.909294E-8
         2251.016     2.143184E-8
         2253.024     2.297384E-8
         2255.033     2.453526E-8
         2257.046     2.611734E-8
         2259.061     2.771905E-8
         2261.075     2.609618E-8
         2263.092     2.159726E-8
         2265.112     1.703449E-8
         2267.134     1.241024E-8
         2269.156     7.727649E-9
         2271.181     6.427473E-9
         2273.207     7.590105E-9
         2275.234     8.767137E-9
         2277.266     9.960083E-9
         2279.296     1.116512E-8
          2281.33     1.366504E-8
         2283.366     1.687582E-8
         2285.402     2.012152E-8
         2287.441     2.341010E-8
         2289.483     2.673748E-8
         2291.525     3.369081E-8
          2293.57     4.195609E-8
         2295.615     5.030747E-8
         2297.663     5.878200E-8
         2299.715     6.736839E-8
         2301.765     7.555631E-8
          2303.82     8.377376E-8
         2305.876     9.208739E-8
         2307.932     1.004926E-7
         2309.992     1.090009E-7
         2312.051     1.241622E-7
         2314.116     1.395528E-7
          2316.18     1.551033E-7
         2318.246     1.708289E-7
         2320.315     1.810335E-7
         2322.385     1.593491E-7
         2324.457     1.373883E-7
         2326.531     1.151784E-7
         2328.606     9.270266E-8
         2330.685     7.291473E-8
         2332.764     5.901832E-8
         2334.845     4.495808E-8
         2336.927     3.073653E-8
         2339.012     1.635128E-8
         2341.101     9.225484E-9
         2343.188     8.741735E-9
         2345.279     8.252131E-9
         2347.372     7.756408E-9
         2349.467     7.254884E-9
         2351.562     9.144530E-9
         2353.661     1.187913E-8
         2355.759     1.463910E-8
         2357.862     1.743197E-8
         2359.966     2.025401E-8
         2362.071     1.769074E-8
         2364.179     1.500816E-8
         2366.288     1.229851E-8
         2368.398     9.559782E-9
         2370.512     8.018665E-9
         2372.628     1.032606E-8
         2374.744     1.265523E-8
         2376.863     1.500920E-8
         2378.983     1.738537E-8
         2381.105     2.056990E-8
          2383.23     2.451444E-8
         2385.357     2.849715E-8
         2387.485     3.251633E-8
         2389.615     3.657395E-8
         2391.747     4.202345E-8
         2393.881     4.782009E-8
         2396.017     5.367479E-8
         2398.154     5.958037E-8
         2400.293     6.336489E-8
         2402.435     5.340356E-8
          2404.58     4.334539E-8
         2406.724     3.319812E-8
         2408.872     2.294865E-8
         2411.022     1.668179E-8
         2413.171     1.488166E-8
         2415.326     1.306128E-8
         2417.479     1.122738E-8
         2419.637     9.373894E-9
         2421.796     9.332048E-9
         2423.957     9.660719E-9
          2426.12     9.992248E-9
         2428.284     1.032622E-8
         2430.451     1.422229E-8
         2432.619     3.175406E-8
         2434.789     4.943577E-8
         2436.962     6.728204E-8
         2439.136     8.527957E-8
         2441.312     8.203799E-8
          2443.49     6.463060E-8
          2445.67     4.706325E-8
         2447.853     2.934310E-8
         2450.036     1.177388E-8
         2452.222     1.114659E-8
         2454.409     1.051377E-8
           2456.6     9.874995E-9
         2458.792     9.230721E-9
         2460.985     8.888165E-9
          2463.18     8.920670E-9
         2465.379     8.953259E-9
         2467.579     8.985904E-9
         2469.778     9.018573E-9
         2471.983     9.051116E-9
          2474.19     9.083714E-9
         2476.396     9.116317E-9
         2478.606     9.149018E-9
         2480.817     9.543098E-9
         2483.029     1.055968E-8
         2485.247     1.158553E-8
         2487.462     1.261739E-8
         2489.682     1.365848E-8
         2491.904     1.393832E-8
         2494.125     1.409088E-8
         2496.353     1.424466E-8
         2498.579     1.439915E-8
         2500.808     1.747096E-8
          2503.04     2.572070E-8
         2505.272     3.402961E-8
         2507.509     4.240973E-8
         2509.745     5.084851E-8
         2511.985     4.865186E-8
         2514.225     4.505692E-8
         2516.468     4.143235E-8
         2518.714     3.777643E-8
         2520.962     3.322852E-8
          2523.21     2.749029E-8
         2525.462     2.170268E-8
         2527.715     1.587310E-8
         2529.971     9.993756E-9
         2532.229     1.750425E-8
         2534.486     2.524158E-8
         2536.748     3.304836E-8
          2539.01     4.084341E-8
         2541.277     4.055019E-8
         2543.545     3.394660E-8
         2545.813     2.731904E-8
         2548.084     2.066406E-8
         2550.358     1.491761E-8
         2552.635     1.418508E-8
         2554.911     1.344991E-8
         2557.191     1.271103E-8
         2559.471     1.196985E-8
         2561.755     1.152959E-8
         2564.042     1.117948E-8
         2566.329     1.082799E-8
         2568.619     1.047476E-8
         2570.908     1.026776E-8
         2573.205     1.028445E-8
           2575.5     1.030104E-8
         2577.797     1.031758E-8
         2580.097     1.056548E-8
         2582.399     1.605804E-8
         2584.704     2.157715E-8
          2587.01     2.711805E-8
         2589.318     3.267892E-8
         2591.629     3.891128E-8
          2593.94     4.543756E-8
         2596.254     5.198952E-8
         2598.573     5.857677E-8
         2600.889     6.746455E-8
          2603.21     8.008480E-8
         2605.532     9.274858E-8
         2607.856     1.054650E-7
         2610.185     1.160748E-7
         2612.512     1.014702E-7
         2614.843     8.678575E-8
         2617.177     7.203707E-8
          2619.51     5.724293E-8
         2621.849     4.698410E-8
         2624.188     3.791916E-8
         2626.528     2.881551E-8
         2628.873     1.966657E-8
         2631.217     1.471497E-8
         2633.566     1.366935E-8
         2635.916     1.261911E-8
         2638.267     1.156479E-8
          2640.62     1.378313E-8
         2642.977     2.519609E-8
         2645.334     3.665124E-8
         2647.695     4.816144E-8
         2650.057     5.927375E-8
         2652.422     5.256825E-8
         2654.788     4.583755E-8
         2657.157     3.907276E-8
         2659.526     3.228652E-8
         2661.899     2.850772E-8
         2664.275     2.547411E-8
         2666.652     2.242882E-8
         2669.031     1.936846E-8
         2671.412     2.354826E-8
         2673.796     3.273831E-8
         2676.181     4.196106E-8
          2678.57     5.122861E-8
          2680.96     6.902835E-8
          2683.35     9.955242E-8
         2685.746     1.302603E-7
          2688.14     1.610421E-7
          2690.54     1.767081E-7
         2692.941     1.396299E-7
         2695.343     1.024095E-7
         2697.748     6.500973E-8
         2700.153     2.965704E-8
         2702.563     2.601618E-8
         2704.975     2.234852E-8
         2707.387     1.865586E-8
         2709.804     1.493326E-8
         2712.222     1.912720E-8
         2714.642     2.405199E-8
         2717.063     2.901169E-8
         2719.486     3.400741E-8
         2721.915     4.065432E-8
         2724.343     4.777399E-8
         2726.772     5.494450E-8
         2729.205     6.216602E-8
          2731.64     6.515601E-8
         2734.078     6.607916E-8
         2736.517     6.700718E-8
         2738.958     6.794055E-8
         2741.402     6.897541E-8
         2743.849     7.008764E-8
         2746.296     7.120577E-8
         2748.747     7.233130E-8
         2751.198     6.564087E-8
         2753.653     5.072413E-8
         2756.111     3.576985E-8
         2758.569     2.078692E-8
         2761.031     1.346006E-8
         2763.495     1.682683E-8
         2765.958     2.019795E-8
         2768.427     2.358145E-8
         2770.898     2.561545E-8
         2773.369     2.527145E-8
         2775.844     2.492636E-8
          2778.32     2.458061E-8
         2780.799     2.483503E-8
          2783.28     2.635719E-8
         2785.764     2.788318E-8
         2788.249     2.941182E-8
         2790.736     3.133792E-8
         2793.227     3.420819E-8
          2795.72     3.708530E-8
         2798.213     3.996756E-8
         2800.709     3.992795E-8
         2803.209     3.249428E-8
         2805.709     2.504744E-8
         2808.213     1.757795E-8
         2810.718     1.937775E-8
         2813.226     4.434196E-8
         2815.736     6.934907E-8
         2818.247     9.441376E-8
         2820.764     1.115968E-7
         2823.278     1.105014E-7
         2825.798     1.094021E-7
          2828.32     1.083002E-7
         2830.843     1.144453E-7
         2833.369     1.350876E-7
         2835.898     1.557779E-7
         2838.426     1.764881E-7
         2840.959     1.739214E-7
         2843.495     1.329727E-7
         2846.031     9.195873E-8
         2848.571     5.082391E-8
         2851.112     2.723035E-8
         2853.655     2.624364E-8
         2856.202     2.525421E-8
         2858.751     2.426265E-8
         2861.301     2.230459E-8
         2863.853     1.941412E-8
         2866.407     1.651725E-8
         2868.965     1.361230E-8
         2871.526     1.828117E-8
         2874.087     2.810041E-8
         2876.652     3.794740E-8
         2879.218     4.780815E-8
         2881.788     5.981997E-8
         2884.358     7.277826E-8
         2886.931     8.576430E-8
         2889.507     9.878430E-8
         2892.084     8.280913E-8
         2894.666     5.991776E-8
         2897.248     3.699128E-8
         2899.832     1.402099E-8
         2902.421     2.628905E-8
          2905.01     4.097047E-8
         2907.601     5.562852E-8
         2910.198     6.835385E-8
          2912.79     5.771661E-8
         2915.392     4.707060E-8
         2917.992     3.645596E-8
         2920.594     2.846225E-8
         2923.203     2.927016E-8
         2925.807     3.007458E-8
          2928.42     3.087933E-8
         2931.033     2.938326E-8
         2933.646     2.438121E-8
         2936.266     1.937909E-8
         2938.885     1.439234E-8
         2941.506     1.226323E-8
         2944.131     1.224639E-8
         2946.757     1.222952E-8
         2949.387     1.221261E-8
         2952.018     1.308899E-8
         2954.653     1.423530E-8
          2957.29     1.537933E-8
         2959.926     1.651970E-8
         2962.567     1.917536E-8
          2965.21     2.186809E-8
         2967.856     2.455669E-8
         2970.505     3.637567E-8
         2973.155     8.688485E-8
         2975.808     1.373248E-7
         2978.461     1.875977E-7
         2981.121     2.034098E-7
          2983.78     1.719338E-7
         2986.441     1.405219E-7
         2989.104     1.091773E-7
         2991.772     8.886326E-8
         2994.442     7.414264E-8
         2997.113     5.946079E-8
         2999.788     4.480041E-8
         3002.464     3.596711E-8
         3005.142     2.764943E-8
         3007.826     1.933910E-8
         3010.507     1.316724E-8
         3013.194     1.603485E-8
         3015.883     1.889600E-8
         3018.573     2.174884E-8
         3021.267     2.293319E-8
          3023.96     2.224245E-8
          3026.66     2.155187E-8
          3029.36     2.086354E-8
         3032.062     2.522880E-8
          3034.77     3.115785E-8
         3037.475     3.706214E-8
         3040.186     4.197455E-8
         3042.897     3.352728E-8
         3045.612     2.509910E-8
         3048.332     1.668033E-8
         3051.051     1.234131E-8
         3053.772     1.443827E-8
         3056.497     1.653149E-8
         3059.222     1.861664E-8
         3061.954     3.768124E-8
         3064.685     6.342250E-8
         3067.418     8.910138E-8
         3070.156     1.117045E-7
         3072.896     8.424324E-8
         3075.637     5.686553E-8
          3078.38     2.955951E-8
         3081.126     1.624568E-8
         3083.877     2.298978E-8
         3086.628     2.970839E-8
         3089.381     3.640860E-8
         3092.137     5.188384E-8
         3094.895     6.986224E-8
         3097.659     8.781451E-8
         3100.422     1.009386E-7
         3103.187     8.758245E-8
         3105.955     7.417372E-8
         3108.729     6.069563E-8
         3111.501     8.324640E-8
         3114.277     1.365089E-7
         3117.056     1.900123E-7
         3119.836     2.436864E-7
         3122.621     2.237118E-7
         3125.406     1.990409E-7
         3128.195     1.742598E-7
         3130.985     1.438453E-7
         3133.778     1.031169E-7
         3136.575     6.220468E-8
         3139.373     2.115807E-8
         3142.175     2.171803E-8
         3144.979     3.436735E-8
         3147.784     4.705937E-8
         3150.592     5.449131E-8
         3153.405     4.199806E-8
         3156.218     2.947236E-8
         3159.035     1.688910E-8
         3161.851     1.905654E-8
         3164.674     2.898165E-8
         3167.497     3.893324E-8
         3170.322     5.000014E-8
         3173.152     6.950405E-8
         3175.982     8.907314E-8
         3178.816     1.087295E-7
         3181.652     1.008715E-7
          3184.49     7.317621E-8
         3187.333     4.533465E-8
         3190.175     2.139971E-8
         3193.022     5.808884E-8
          3195.87     9.490098E-8
         3198.722     1.318775E-7
         3201.577     1.305180E-7
         3204.433     9.791493E-8
         3207.291     6.518523E-8
         3210.151     3.420692E-8
         3213.018     3.681098E-8
         3215.884     3.942171E-8
         3218.752     4.204268E-8
         3221.623     3.931341E-8
         3224.499     3.243947E-8
         3227.376     2.553817E-8
         3230.255     1.985121E-8
         3233.136     2.689300E-8
          3236.02     3.396259E-8
         3238.908     4.106426E-8
         3241.799     3.808577E-8
          3244.69     2.895163E-8
         3247.584     1.978026E-8
         3250.485     1.446575E-8
         3253.384     2.861644E-8
         3256.286     4.282308E-8
         3259.192     5.709424E-8
         3262.097     5.850346E-8
          3265.01     5.492801E-8
         3267.922     5.134301E-8
         3270.837     5.096734E-8
         3273.758     5.861974E-8
         3276.675     6.628253E-8
         3279.601     7.399492E-8
         3282.526     5.927584E-8
         3285.454     4.093992E-8
         3288.388     2.250961E-8
         3291.319     1.236808E-8
         3294.257     1.238706E-8
         3297.195     1.240605E-8
         3300.137     1.249027E-8
         3303.083     1.390854E-8
         3306.029     1.533159E-8
         3308.979     1.676097E-8
         3311.931     2.308415E-8
         3314.885     3.202273E-8
         3317.844     4.100203E-8
         3320.803     4.793523E-8
         3323.767     4.930599E-8
         3326.731     5.068125E-8
           3329.7     5.206271E-8
          3332.67     4.425981E-8
         3335.643     3.539129E-8
         3338.622     2.647679E-8
         3341.599     5.366793E-8
          3344.58     1.121887E-7
         3347.563     1.709394E-7
         3350.551     2.080444E-7
         3353.541     1.481029E-7
         3356.532     8.795416E-8
         3359.528     2.752870E-8
         3362.524     2.091289E-8
         3365.525     2.440082E-8
         3368.527     2.790071E-8
         3371.532     2.723967E-8
         3374.541     2.254925E-8
         3377.551     1.784244E-8
         3380.565     1.793628E-8
         3383.582     3.898009E-8
         3386.598     6.008341E-8
         3389.623     8.131146E-8
         3392.646     1.076157E-7
         3395.672     1.347460E-7
         3398.705     1.620193E-7
         3401.732     1.460052E-7
          3404.77     9.732607E-8
         3407.807     4.850677E-8
         3410.847     1.577529E-8
         3413.893     2.520942E-8
         3416.938     3.467063E-8
         3419.985     4.417111E-8
         3423.038     7.996273E-8
         3426.089     1.159848E-7
         3429.148     1.522210E-7
         3432.207     2.096014E-7
         3435.268     2.753563E-7
         3438.334     3.414242E-7
         3441.401     3.294682E-7
         3444.473     2.241204E-7
         3447.545     1.184112E-7
         3450.622     3.256221E-8
         3453.701     2.704023E-8
         3456.782     2.149909E-8
         3459.865     1.593434E-8
         3462.951     1.086445E-7
         3466.042     2.063034E-7
         3469.135     3.043689E-7
         3472.229     2.766949E-7
         3475.326     1.998467E-7
         3478.426     1.226748E-7
         3481.532     7.544912E-8
         3484.638     5.930089E-8
         3487.746     4.308546E-8
         3490.859     3.526033E-8
         3493.972     4.968793E-8
         3497.091     6.418439E-8
          3500.21     7.646911E-8
         3503.334     5.731455E-8
          3506.46     3.807658E-8
         3509.586     1.877906E-8
          3512.72     7.104214E-8
         3515.852     1.343527E-7
         3518.989     1.980087E-7
          3522.13     2.145706E-7
         3525.271     2.086677E-7
         3528.418     2.027349E-7
         3531.563     1.726146E-7
         3534.717     1.177307E-7
          3537.87     6.267172E-8
         3541.025     3.733245E-8
         3544.188     7.435145E-8
         3547.349     1.114847E-7
         3550.513     1.363477E-7
         3553.679     9.685294E-8
         3556.849     5.718259E-8
         3560.026     1.770610E-8
         3563.201     2.970238E-8
         3566.379     4.175111E-8
         3569.562     5.386178E-8
         3572.746     4.428998E-8
         3575.935     3.119206E-8
         3579.124     1.804455E-8
         3582.316     1.444413E-8
         3585.513     1.446992E-8
         3588.714     1.449576E-8
         3591.915     2.162439E-8
         3595.118     3.356928E-8
         3598.325     4.556865E-8
         3601.538     4.678197E-8
         3604.751     3.616312E-8
         3607.966     2.549688E-8
         3611.184     1.825994E-8
         3614.409     1.698039E-8
         3617.633     1.569663E-8
         3620.859     3.030000E-8
         3624.089     8.887130E-8
         3627.322     1.477043E-7
         3630.561     1.876642E-7
         3633.799     1.358593E-7
          3637.04     8.381878E-8
         3640.286     3.704587E-8
         3643.533     4.742907E-8
         3646.785     5.786466E-8
         3650.038     6.819993E-8
         3653.295     6.648221E-8
         3656.556     6.475619E-8
         3659.815     6.302434E-8
         3663.082     4.826678E-8
         3666.353     3.264956E-8
         3669.621     1.698899E-8
         3672.896     1.519429E-8
         3676.172     1.522215E-8
         3679.451     1.525006E-8
         3682.737     2.606594E-8
         3686.022     3.908586E-8
         3689.309     5.216409E-8
           3692.6     7.525977E-8
         3695.896     1.011262E-7
         3699.194     1.271124E-7
         3702.494     1.053486E-7
         3705.798     6.795520E-8
         3709.101     3.043765E-8
         3712.412     7.172029E-8
         3715.725     1.427233E-7
         3719.039     2.140033E-7
         3722.358     1.963575E-7
         3725.678     1.421891E-7
         3729.004     8.773628E-8
          3732.33     5.848168E-8
         3735.659     3.998953E-8
         3738.995     2.138940E-8
          3742.33     1.640793E-8
         3745.668     1.732174E-8
         3749.009     1.823963E-8
         3752.354     1.791122E-8
         3755.703     1.705298E-8
         3759.053     1.619122E-8
         3762.408     2.475840E-8
         3765.764     3.707615E-8
         3769.125     4.945704E-8
         3772.487     5.117507E-8
         3775.852     4.912143E-8
         3779.222     4.705665E-8
         3782.594     4.085265E-8
         3785.968     3.338229E-8
         3789.345     2.587720E-8
         3792.725     3.015773E-8
         3796.112     3.731401E-8
         3799.498     4.449427E-8
         3802.887     4.454283E-8
         3806.279     4.334240E-8
         3809.676     4.213544E-8
         3813.076     4.887908E-8
         3816.477     5.648947E-8
         3819.881     6.413403E-8
          3823.29     5.484565E-8
           3826.7     4.490591E-8
         3830.116     3.582714E-8
         3833.532     5.278156E-8
         3836.951     6.981207E-8
         3840.378     8.248310E-8
         3843.803     5.915578E-8
         3847.232     3.572326E-8
         3850.663     1.917211E-8
         3854.102     3.181023E-8
          3857.54     4.449035E-8
          3860.98     5.568809E-8
         3864.426     6.306716E-8
         3867.875     7.047932E-8
         3871.325     7.496905E-8
         3874.778     7.473324E-8
         3878.234     7.449602E-8
         3881.695     7.182045E-8
         3885.157     6.659083E-8
         3888.625     6.133406E-8
         3892.094     7.655009E-8
         3895.565     1.053282E-7
         3899.044     1.342715E-7
         3902.521     1.177150E-7
         3906.002     8.374936E-8
         3909.489     4.961278E-8
         3912.975     5.631859E-8
         3916.468     7.012532E-8
         3919.961     8.398326E-8
         3923.457     8.323816E-8
         3926.961     8.232215E-8
         3930.462     8.585579E-8
         3933.969     1.188274E-7
         3937.478     1.519227E-7
         3940.992     1.648834E-7
          3944.51     1.261832E-7
         3948.028     8.733847E-8
          3951.55     6.922046E-8
         3955.074     7.768393E-8
         3958.606     8.619439E-8
         3962.137     8.351022E-8
         3965.671     7.347593E-8
          3969.21     6.339208E-8
          3972.75     1.129852E-7
         3976.296     1.800227E-7
         3979.843     2.473046E-7
         3983.395     2.338601E-7
          3986.95     2.165941E-7
         3990.504     1.958634E-7
         3994.065     1.542917E-7
          3997.63     1.125421E-7
         4001.196     1.058966E-7
         4004.767     1.691747E-7
         4008.339     2.324491E-7
         4011.914     2.739458E-7
         4015.494     2.965294E-7
         4019.078     3.191246E-7
         4022.663     3.008848E-7
         4026.251     2.684879E-7
         4029.844     2.360576E-7
         4033.441     2.334474E-7
         4037.039     2.321882E-7
         4040.639     2.280792E-7
         4044.243     2.107577E-7
         4047.855     1.934067E-7
         4051.465     1.855543E-7
         4055.079     1.915899E-7
         4058.698     1.976314E-7
         4062.316     2.092602E-7
         4065.944     2.240649E-7
          4069.57     2.388565E-7
           4073.2     2.372586E-7
         4076.838     2.334526E-7
         4080.472     2.255886E-7
         4084.114     1.904375E-7
         4087.756     1.552958E-7
         4091.405     1.430439E-7
         4095.056     1.674244E-7
         4098.708     1.917946E-7
         4102.367     1.878158E-7
         4106.026     1.683569E-7
         4109.688     1.488955E-7
         4113.356     1.969116E-7
         4117.025     2.511821E-7
         4120.699     2.928119E-7
         4124.375     2.804659E-7
         4128.056     2.681093E-7
         4131.738     2.500644E-7
         4135.423     2.256451E-7
         4139.116     2.011891E-7
         4142.808     2.309426E-7
         4146.503     2.777704E-7
         4150.201     3.202105E-7
         4153.903     2.863204E-7
         4157.613     2.523910E-7
         4161.321     2.285798E-7
         4165.033     2.229906E-7
         4168.748     2.174006E-7
         4172.466     2.162456E-7
         4176.192     2.173457E-7
         4179.917     2.184443E-7
         4183.645     2.065011E-7
         4187.379     1.942521E-7
         4191.116     1.872320E-7
         4194.854     1.924939E-7
         4198.596     1.977556E-7
         4202.343     2.092089E-7
         4206.094     2.244044E-7
         4209.845     2.396303E-7
         4213.603     2.208103E-7
         4217.358     2.004985E-7
         4221.123     1.736992E-7
          4224.89     1.317310E-7
         4228.658     8.967361E-8
         4232.432     9.049273E-8
         4236.208     1.150713E-7
         4239.988     1.397273E-7
          4243.77     1.436797E-7
         4247.555     1.475775E-7
         4251.348     1.369132E-7
          4255.14     9.978294E-8
         4258.936     6.255592E-8
         4262.734     4.279629E-8
         4266.537     2.983501E-8
         4270.347     1.801135E-8
         4274.155     1.802642E-8
         4277.968     1.804151E-8
         4281.786     1.805650E-8
         4285.605     1.807137E-8
          4289.43     1.808627E-8
         4293.256     1.810114E-8
         4297.085     1.811603E-8
         4300.922     1.813089E-8
         4304.759     1.814558E-8
         4308.598     1.816029E-8
         4312.441     1.817499E-8
          4316.29     1.818971E-8
         4320.142     1.820444E-8
         4323.996     1.821916E-8
         4327.854     1.823390E-8
         4331.715     1.824865E-8
         4335.581     1.826339E-8
         4339.448     1.827814E-8
         4343.318     1.829270E-8
         4347.195     1.830726E-8
         4351.072     1.832175E-8
         4354.956     1.833611E-8
          4358.84     1.835046E-8
         4362.728     1.836496E-8
         4366.624     1.837956E-8
         4370.519     1.839412E-8
         4374.417     1.840849E-8
         4378.318     1.842287E-8
         4382.229     5.913267E-8
         4386.137     1.306120E-7
         4390.049     2.097105E-7
         4393.967     8.735175E-7
         4397.889     1.539007E-6
         4401.812     2.047171E-6
         4405.738     2.371693E-6
         4409.667     2.697002E-6
         4413.603     3.184136E-6
         4417.542     3.687308E-6
         4421.482     4.028976E-6
         4425.426     4.101645E-6
         4429.373     4.174476E-6
         4433.329     3.999532E-6
         4437.283     3.777621E-6
         4441.241     3.570807E-6
         4445.205     3.397583E-6
         4449.169     3.224048E-6
          4453.14     2.751990E-6
         4457.112     2.200136E-6
         4461.088     1.708164E-6
         4465.069     1.377514E-6
         4469.052     1.046284E-6
         4473.041     8.503427E-7
          4477.03     6.966137E-7
         4481.028     5.616014E-7
         4485.022     4.821553E-7
         4489.025     4.024138E-7
         4493.032     3.576086E-7
         4497.039     3.240275E-7
         4501.053     2.961726E-7
         4505.067     2.846322E-7
         4509.086     2.729810E-7
         4513.107     2.668886E-7
         4517.136     2.624066E-7
         4521.167     2.536022E-7
           4525.2     2.341780E-7
         4529.238     2.145676E-7
         4533.281     2.445481E-7
         4537.324     2.863621E-7
         4541.371     3.224399E-7
         4545.422     3.468886E-7
         4549.479     3.715499E-7
         4553.539     4.022781E-7
           4557.6     4.341088E-7
         4561.668     4.583148E-7
         4565.734     4.712685E-7
         4569.809     4.843367E-7
         4573.887     4.372973E-7
         4577.967     3.869018E-7
         4582.053     3.281542E-7
         4586.142     2.610457E-7
         4590.233     1.955151E-7
         4594.327     1.645138E-7
         4598.425     1.332530E-7
         4602.529     1.334836E-7
         4606.637     1.535963E-7
         4610.746     1.629361E-7
          4614.86     1.228390E-7
         4618.979     8.240287E-8
         4623.097     8.466700E-8
         4627.223     1.011947E-7
          4631.35     1.081833E-7
         4635.483     9.524791E-8
         4639.621     8.220604E-8
         4643.759     1.095901E-7
           4647.9     1.412990E-7
         4652.046     1.597278E-7
         4656.198     1.643518E-7
         4660.354     1.658576E-7
         4664.511     1.333486E-7
         4668.673     1.005648E-7
          4672.84     9.224514E-8
         4677.005     9.545592E-8
          4681.18     9.147976E-8
         4685.355     6.909055E-8
         4689.537     4.650882E-8
         4693.722     5.182248E-8
         4697.909     6.068105E-8
         4702.102     5.768291E-8
         4706.293     4.275493E-8
         4710.493     2.978895E-8
         4714.697     3.255718E-8
         4718.902     3.534429E-8
         4723.114     4.082479E-8
          4727.33     4.729164E-8
         4731.543     4.998146E-8
         4735.766     4.605251E-8
          4739.99     4.209455E-8
         4744.221     4.202448E-8
         4748.455     4.196207E-8
          4752.69     3.876914E-8
         4756.932     3.374268E-8
         4761.172     2.936186E-8
         4765.421     2.672726E-8
         4769.674     2.407232E-8
         4773.929     4.071881E-8
         4778.189     5.910967E-8
         4782.454     6.365283E-8
         4786.719     5.787021E-8
         4790.989     5.241101E-8
         4795.262     4.813614E-8
         4799.542     4.382571E-8
         4803.826     5.924991E-8
          4808.11     7.715244E-8
         4812.401     7.877442E-8
         4816.696     6.743009E-8
         4820.993     5.583485E-8
         4825.292     4.357910E-8
         4829.597     3.123041E-8
         4833.907     2.816614E-8
         4838.221     2.605106E-8
         4842.537     2.532153E-8
         4846.855     2.557204E-8
         4851.179     2.619568E-8
         4855.508     2.782014E-8
         4859.842     2.945586E-8
         4864.177     2.794406E-8
         4868.518     2.629971E-8
         4872.863     2.578952E-8
         4877.209     2.587096E-8
          4881.56     2.595249E-8
         4885.914     2.603412E-8
         4890.277     2.617241E-8
         4894.639     2.714699E-8
         4899.004     2.812804E-8
         4903.376     2.994685E-8
         4907.748     3.202173E-8
          4912.13     3.199833E-8
         4916.512     2.973048E-8
         4920.897     3.262415E-8
         4925.289     5.576850E-8
         4929.685     7.907821E-8
         4934.082     8.458217E-8
         4938.482     8.873041E-8
         4942.887     7.208826E-8
         4947.301     4.430791E-8
         4951.714     2.727100E-8
         4956.131     2.735439E-8
         4960.554     2.743786E-8
         4964.976     2.752100E-8
          4969.41     2.760438E-8
         4973.842     2.768808E-8
         4978.278     2.777192E-8
         4982.724     2.905826E-8
         4987.168     3.111337E-8
         4991.617     3.570109E-8
         4996.069     4.474874E-8
         5000.528     5.352779E-8
         5004.991     5.985623E-8
         5009.455     6.623035E-8
         5013.923     5.202668E-8
         5018.398     3.482174E-8
         5022.874     2.869697E-8
         5027.357     2.879818E-8
         5031.841     2.889928E-8
         5036.329     2.900028E-8
         5040.827     2.910159E-8
         5045.323     2.920319E-8
         5049.823     2.930492E-8
         5054.327     2.940634E-8
         5058.838     2.950793E-8
         5063.353     3.239188E-8
         5067.869     3.626350E-8
          5072.39     3.957223E-8
         5076.919     4.237835E-8
         5081.448     4.227134E-8
          5085.98     3.590023E-8
         5090.516     3.043154E-8
          5095.06     3.236973E-8
         5099.607     3.432208E-8
         5104.155     4.046026E-8
         5108.708     4.704156E-8
         5113.265     4.776573E-8
         5117.828     4.614602E-8
         5122.396     4.243517E-8
         5126.965     3.680766E-8
         5131.538     3.278790E-8
          5136.12     3.200905E-8
         5140.701     3.136095E-8
         5145.287     3.146506E-8
         5149.876     3.156930E-8
         5154.472     3.167371E-8
         5159.072     3.177825E-8
         5163.674     3.188282E-8
         5168.283     3.198758E-8
         5172.895     3.718155E-8
         5177.506     4.543571E-8
         5182.127     4.644117E-8
         5186.749     3.884180E-8
         5191.378     3.336299E-8
         5196.012     3.301236E-8
         5200.646     3.376308E-8
         5205.285     4.136514E-8
         5209.928     4.902252E-8
         5214.577     4.989547E-8
         5219.231     5.066546E-8
         5223.887     4.405750E-8
         5228.549     3.593024E-8
         5233.215     3.687228E-8
          5237.88     4.195091E-8
         5242.555     4.217486E-8
         5247.231     3.832117E-8
         5251.914     3.565544E-8
         5256.601     3.474005E-8
          5261.29     4.453315E-8
         5265.985     8.275838E-8
          5270.68     1.146021E-7
         5275.383     1.074633E-7
         5280.092     9.986538E-8
         5284.801     7.177749E-8
         5289.518     4.346985E-8
         5294.239     3.820837E-8
         5298.958     3.556571E-8
         5303.687     6.219094E-8
         5308.418     9.729588E-8
         5313.155     8.594768E-8
         5317.897     5.099852E-8
         5322.641     3.549395E-8
         5327.391     3.560117E-8
          5332.14     3.570859E-8
         5336.899     3.581655E-8
         5341.662     3.839200E-8
         5346.426     4.560401E-8
         5351.198     5.579307E-8
         5355.974     7.481007E-8
         5360.751     8.687076E-8
         5365.532     6.093824E-8
         5370.318     3.657286E-8
         5375.111     3.668068E-8
         5379.908     3.678858E-8
         5384.707     4.297186E-8
         5389.513     4.931876E-8
         5394.323     4.448400E-8
         5399.131     3.835311E-8
          5403.95     4.785972E-8
          5408.77     6.088613E-8
         5413.597     6.354492E-8
         5418.429     6.262999E-8
         5423.262     5.439971E-8
         5428.099     4.257945E-8
          5432.94     3.798176E-8
         5437.792     3.809046E-8
         5442.643     3.827574E-8
         5447.497     3.852587E-8
         5452.359     3.983157E-8
         5457.225     4.226813E-8
         5462.092     4.265276E-8
         5466.964     4.028940E-8
          5471.84     3.885062E-8
         5476.724     3.895890E-8
         5481.612     3.906726E-8
         5486.501     3.917569E-8
         5491.398     4.456587E-8
         5496.293     6.323400E-8
         5501.198     7.893227E-8
         5506.108     8.506754E-8
         5511.019     8.487444E-8
         5515.938     6.028826E-8
          5520.86     3.990351E-8
         5525.785     4.000455E-8
         5530.713     4.068374E-8
         5535.646     4.479392E-8
         5540.587     5.278762E-8
         5545.532     8.954045E-8
         5550.478     1.228868E-7
         5555.432     1.227471E-7
         5560.387     1.225325E-7
         5565.347     1.214578E-7
         5570.313     1.207384E-7
         5575.282     1.254292E-7
         5580.258     1.305818E-7
         5585.238     1.437309E-7
          5590.22     1.622416E-7
         5595.206     2.960395E-7
         5600.197     4.312573E-7
         5605.198     5.833487E-7
         5610.197     7.316212E-7
         5615.201     7.784937E-7
         5620.213     8.260664E-7
         5625.226     8.851750E-7
         5630.246     9.462793E-7
         5635.268     1.041597E-6
         5640.294     1.140779E-6
         5645.328     1.297327E-6
         5650.367     1.445755E-6
         5655.406     1.483881E-6
         5660.451     1.513424E-6
         5665.502     1.454008E-6
         5670.559     1.402295E-6
         5675.617     1.414247E-6
         5680.679     1.400025E-6
         5685.752     1.216017E-6
         5690.823     1.057906E-6
         5695.899     1.035348E-6
         5700.979     9.996334E-7
         5706.064     9.089179E-7
          5711.16     8.239342E-7
         5716.254     7.596664E-7
         5721.353     7.067194E-7
         5726.456     6.856109E-7
         5731.567     7.188056E-7
         5736.682     8.753912E-7
         5741.799     9.498556E-7
          5746.92     8.719639E-7
         5752.053     8.105758E-7
         5757.183     7.743776E-7
         5762.318     7.724848E-7
         5767.458     8.125176E-7
         5772.602     8.730158E-7
         5777.757     9.537176E-7
         5782.911     9.745380E-7
         5788.068     9.490601E-7
         5793.237     9.568636E-7
         5798.401     9.846120E-7
         5803.577     1.038435E-6
         5808.753     1.104013E-6
         5813.937     1.242236E-6
         5819.126     1.403902E-6
         5824.316     1.509337E-6
         5829.511     1.603617E-6
         5834.711     1.847003E-6
         5839.918     2.106818E-6
          5845.13     2.645916E-6
         5850.344     3.233445E-6
         5855.562     4.426790E-6
         5860.792     5.918476E-6
         5866.016     9.054868E-6
         5871.251     1.280170E-5
         5876.488     1.845998E-5
         5881.732     2.678056E-5
         5886.982     4.049293E-5
         5892.232     5.828979E-5
         5897.491     8.164671E-5
         5902.749     1.181285E-4
         5908.017     1.667459E-4
          5913.29     2.317453E-4
         5918.563     3.067074E-4
         5923.846     4.331532E-4
         5929.133     5.791779E-4
         5934.421     7.616122E-4
         5939.714     9.517158E-4
         5945.012     9.502618E-4
         5950.318     0.001249958
         5955.629     0.001603204
         5960.941     0.002065761
         5966.258     0.002606179
         5971.579     0.003243079
         5976.909     0.004024636
         5982.243     0.004925763
         5987.579       0.0059465
         5992.923     0.007142708
         5998.271     0.008442394
         6003.622     0.009936737
         6008.976       0.0115726
         6014.336      0.01337874
         6019.704      0.01538665
         6025.076      0.01762438
          6030.45      0.02009347
         6035.832      0.02272719
         6041.219      0.02558433
         6046.604      0.02857788
         6052.001      0.03167633
         6057.399      0.03495177
         6062.805      0.03818936
         6068.216      0.04144455
         6073.628      0.04464694
         6079.046      0.04779632
         6084.468      0.05105272
         6089.898      0.05421568
         6095.333       0.0574176
          6100.77      0.06057555
         6106.215      0.06383322
         6111.665       0.0668759
         6117.112      0.07003883
         6122.572      0.07279269
         6128.033      0.07561906
         6133.502      0.07808327
         6138.976      0.08045448
         6144.452      0.08278716
         6149.936      0.08486213
         6155.417      0.08694515
         6160.911      0.08892483
          6166.41      0.09087804
          6171.91      0.09268223
         6177.418      0.09510139
         6182.932      0.09646186
         6188.443      0.09851307
         6193.966       0.1004651
         6199.491       0.1023514
         6205.024       0.1040573
         6210.562       0.1058364
         6216.101       0.1075733
         6221.649       0.1090185
         6227.195       0.1105135
         6232.756       0.1118251
         6238.315       0.1132352
         6243.879        0.114783
         6249.452       0.1160667
         6255.029        0.117424
         6260.608       0.1187935
         6266.193       0.1200433
         6271.782       0.1215545
         6277.379       0.1227615
         6282.982       0.1240169
         6288.586       0.1253509
         6294.198       0.1263934
         6299.809       0.1273858
         6305.435       0.1281405
         6311.059       0.1291029
         6316.688       0.1298842
         6322.326       0.1305072
         6327.968       0.1312223
         6333.612       0.1317724
         6339.262       0.1320556
         6344.916       0.1324482
         6350.579       0.1328066
         6356.247       0.1329034
         6361.916       0.1331436
         6367.594       0.1332476
         6373.277         0.13361
         6378.961       0.1333184
         6384.651       0.1335135
         6390.346       0.1333718
         6396.049       0.1335821
         6401.757       0.1334286
         6407.467       0.1332959
         6413.183       0.1333591
         6418.906       0.1332015
         6424.631       0.1330979
         6430.365       0.1329543
         6436.104       0.1326029
         6441.845       0.1326526
         6447.594       0.1326661
         6453.345       0.1324155
         6459.101       0.1323698
         6464.866       0.1324008
         6470.632        0.132461
         6476.407       0.1326275
         6482.184       0.1329821
         6487.969       0.1330874
         6493.756       0.1332431
         6499.548       0.1335905
         6505.349        0.133656
         6511.154       0.1337807
         6516.962       0.1336774
         6522.778       0.1336088
         6528.596       0.1333395
         6534.419       0.1335659
         6540.251        0.133791
         6546.088       0.1335676
         6551.927       0.1336306
         6557.771       0.1337092
         6563.624       0.1337453
         6569.478       0.1340935
         6575.341        0.134302
         6581.206       0.1344896
          6587.08       0.1346634
         6592.955       0.1350511
         6598.839       0.1353086
         6604.729       0.1356558
         6610.616       0.1357403
         6616.516       0.1359617
         6622.421       0.1359994
         6628.328       0.1359884
         6634.244       0.1359641
         6640.165       0.1358707
         6646.087       0.1358254
         6652.015       0.1358411
         6657.948       0.1358172
         6663.891       0.1355711
         6669.838       0.1356058
         6675.787       0.1354808
         6681.745       0.1354003
         6687.701       0.1353775
          6693.67       0.1352437
         6699.644       0.1351091
          6705.62       0.1348867
         6711.604       0.1346868
         6717.594       0.1343583
         6723.586       0.1341908
         6729.583       0.1338323
         6735.585       0.1336612
         6741.597       0.1332884
         6747.613       0.1330464
         6753.632        0.132691
          6759.66        0.132582
         6765.692       0.1324299
         6771.723       0.1321042
         6777.767        0.131947
         6783.813       0.1317092
         6789.867        0.131199
         6795.927       0.1312607
         6801.988       0.1306818
         6808.055       0.1305074
         6814.127       0.1301603
         6820.209       0.1298249
         6826.296       0.1294087
         6832.385       0.1291282
         6838.482        0.129047
         6844.586       0.1289584
         6850.687       0.1285209
         6856.801       0.1283902
         6862.917       0.1281584
         6869.042       0.1280364
         6875.173       0.1276035
         6881.305       0.1273519
         6887.446       0.1270059
         6893.586       0.1265829
         6899.738       0.1261852
         6905.896       0.1259664
         6912.056       0.1257276
         6918.225       0.1251439
         6924.399       0.1247313
         6930.572       0.1243459
         6936.757       0.1237689
         6942.944       0.1234444
         6949.141       0.1228756
         6955.343       0.1222598
         6961.546       0.1214685
          6967.76       0.1206956
         6973.971       0.1198648
         6980.195       0.1191919
         6986.424       0.1182802
         6992.656       0.1174561
         6998.897       0.1168428
         7005.143       0.1157455
         7011.392       0.1150532
         7017.645       0.1145027
         7023.904        0.113875
         7030.173       0.1132234
         7036.448       0.1126414
         7042.724       0.1121336
         7049.009       0.1113141
         7055.292       0.1103441
         7061.589       0.1091875
         7067.892       0.1078808
         7074.196       0.1065019
          7080.51       0.1048803
         7086.829       0.1033106
          7093.15       0.1017584
         7099.477       0.1005347
         7105.809       0.0995096
         7112.151       0.0986625
         7118.498      0.09823205
         7124.848      0.09807238
         7131.207      0.09811933
         7137.571      0.09834593
         7143.933      0.09857566
         7150.309      0.09884303
         7156.687      0.09920125
         7163.074      0.09928631
         7169.467      0.09888303
         7175.862      0.09862844
         7182.262       0.0979732
         7188.668      0.09748869
         7195.084      0.09694886
         7201.506      0.09642056
         7207.929      0.09603181
         7214.362      0.09586372
         7220.801       0.0962218
         7227.237      0.09631113
         7233.688      0.09697584
         7240.144      0.09793332
         7246.601      0.09896479
         7253.069       0.1000997
         7259.538       0.1012905
         7266.017       0.1021447
         7272.498       0.1030331
         7278.989       0.1039957
         7285.481       0.1043643
         7291.979       0.1046296
         7298.487       0.1048112
         7305.001       0.1045464
         7311.517       0.1036758
         7318.038       0.1024642
         7324.569       0.1005065
         7331.103      0.09817411
         7337.646      0.09523522
          7344.19      0.09167528
         7350.745      0.08762363
         7357.301      0.08316446
         7363.867      0.07832626
         7370.436      0.07330059
         7377.014      0.06806245
         7383.593      0.06252785
         7390.183      0.05690215
         7396.775      0.05102875
         7403.372      0.04540174
         7409.979      0.03990711
         7416.589       0.0349094
         7423.208      0.03043253
         7429.829      0.02656313
          7436.46      0.02308852
         7443.097      0.02019367
         7449.736      0.01783945
         7456.381      0.01577705
         7463.036      0.01416441
         7469.692      0.01278734
         7476.359      0.01161384
         7483.027       0.0106052
         7489.702     0.009712302
         7496.386     0.008947892
         7503.077     0.008093791
         7509.769     0.007272999
         7516.471     0.006475415
         7523.175     0.005724112
          7529.89      0.00503174
         7536.606     0.004433305
         7543.328     0.003882118
         7550.061      0.00341259
         7556.794     0.003004048
         7563.539     0.002796378
          7570.29     0.002623078
         7577.042     0.002450792
           7583.8      0.00227939
         7590.568     0.002106661
         7597.339     0.001911946
         7604.119      0.00174831
         7610.906     0.001605732
         7617.694     0.001468934
         7624.489     0.001353732
          7631.29     0.001249593
           7638.1     0.001144932
         7644.917     0.001058031
         7651.736     9.776546E-4
         7658.565     8.958435E-4
         7665.396     8.280067E-4
         7672.233     7.639921E-4
         7679.081     7.000295E-4
          7685.93     6.486138E-4
          7692.79     5.996002E-4
         7699.655     5.512573E-4
         7706.523     5.135333E-4
         7713.401     4.768399E-4
         7720.276     4.410302E-4
         7727.167     4.132207E-4
         7734.063     3.856337E-4
         7740.961     3.591105E-4
          7747.87     3.379319E-4
         7754.785     3.162832E-4
         7761.697     2.954392E-4
         7768.625     2.774970E-4
         7775.554     2.590402E-4
         7782.494     2.418100E-4
         7789.439     2.269715E-4
         7796.387     2.117325E-4
         7803.345     1.979834E-4
         7810.301     1.858981E-4
         7817.271     1.739217E-4
         7824.249     1.635925E-4
         7831.227     1.543708E-4
         7838.216     1.453401E-4
         7845.212     1.377555E-4
         7852.209     1.307862E-4
         7859.213     1.240556E-4
         7866.223     1.185476E-4
         7873.244     1.130297E-4
         7880.271     1.073587E-4
         7887.299     1.025543E-4
         7894.338     9.770349E-5
         7901.375     9.295395E-5
         7908.427     8.868602E-5
         7915.485     8.408805E-5
         7922.545     7.969880E-5
         7929.616     7.582917E-5
         7936.693     7.154862E-5
         7943.772     6.773070E-5
         7950.858     6.432003E-5
          7957.95     6.080606E-5
         7965.052     5.784841E-5
         7972.161     5.515260E-5
         7979.271     5.253616E-5
         7986.393     5.056701E-5
         7993.521     4.974270E-5
         8000.646     4.975737E-5
         8007.786     4.727195E-5
         8014.929     4.488829E-5
         8022.082     4.279716E-5
         8029.242     4.130142E-5
         8036.403     3.900695E-5
         8043.576     3.743267E-5
         8050.746     3.656321E-5
         8057.931     3.477131E-5
         8065.123     3.333190E-5
         8072.316     3.222347E-5
         8079.521     3.150592E-5
         8086.731     3.011799E-5
          8093.94     2.917507E-5
         8101.164     2.858477E-5
         8108.389     2.773889E-5
         8115.626     2.670316E-5
         8122.869     2.571802E-5
         8130.114     2.488888E-5
          8137.37     2.399629E-5
         8144.628     2.337972E-5
         8151.893     2.270323E-5
         8159.168     2.142001E-5
         8166.446     2.073734E-5
         8173.734     2.014841E-5
         8181.029     1.958144E-5
         8188.326     1.904926E-5
          8195.63     1.874428E-5
         8202.939     1.823701E-5
         8210.261     1.736232E-5
         8217.588     1.727845E-5
         8224.918     1.656286E-5
         8232.259     1.567010E-5
         8239.602     1.506645E-5
          8246.95     1.454906E-5
         8254.311     1.424219E-5
         8261.673     1.394774E-5
         8269.047     1.320820E-5
         8276.427     1.284404E-5
         8283.809     1.238276E-5
         8291.197     1.183259E-5
         8298.597     1.155197E-5
         8305.999     1.126657E-5
         8313.412     1.116107E-5
         8320.827     1.118429E-5
         8328.253     1.056553E-5
         8335.687     1.076832E-5
         8343.121     1.079460E-5
         8350.563     1.030811E-5
         8358.011     1.066703E-5
         8365.471     1.066626E-5
         8372.937     1.065438E-5
         8380.409     1.079902E-5
         8387.879     1.047942E-5
         8395.365     9.893952E-6
         8402.854     9.466945E-6
         8410.353     9.462345E-6
         8417.859     9.407710E-6
         8425.367     8.937128E-6
         8432.887     8.530391E-6
         8440.408     8.500756E-6
         8447.937     8.646651E-6
         8455.477     8.700838E-6
         8463.019     8.618676E-6
         8470.571     8.378937E-6
         8478.127     8.072762E-6
         8485.693     7.661253E-6
         8493.262     7.419288E-6
         8500.842     7.432570E-6
         8508.425     7.345631E-6
         8516.019     7.410293E-6
         8523.614     7.527905E-6
         8531.221     7.559075E-6
          8538.83     7.062550E-6
         8546.446     6.508022E-6
         8554.074     6.305992E-6
         8561.704     6.362768E-6
         8569.345     6.224373E-6
         8576.993     6.181736E-6
         8584.644     5.853097E-6
         8592.301     5.430917E-6
         8599.969     5.232038E-6
          8607.64     5.711316E-6
         8615.321     5.704777E-6
         8623.006     5.518592E-6
         8630.702     5.417087E-6
         8638.405     5.605015E-6
         8646.105     5.382290E-6
         8653.821     5.130226E-6
          8661.54     4.920285E-6
         8669.271     4.563408E-6
         8677.008     4.267406E-6
         8684.747     4.353073E-6
         8692.493     4.426102E-6
         8700.251     3.990211E-6
         8708.012     3.845885E-6
         8715.783     3.283404E-6
         8723.563     2.827008E-6
         8731.343     2.635860E-6
         8739.136     2.312276E-6
         8746.926     2.281460E-6
         8754.732     1.918925E-6
         8762.546     1.561472E-6
         8770.361     1.702045E-6
         8778.188     1.836673E-6
         8786.019     1.736932E-6
         8793.859     1.594404E-6
         8801.703     1.567466E-6
         8809.554     1.853972E-6
         8817.416     1.656626E-6
         8825.286     1.452946E-6
         8833.157     1.394902E-6
         8841.041     1.521765E-6
         8848.922     1.554045E-6
         8856.819     1.114111E-6
         8864.724     9.007724E-7
         8872.631     1.083133E-6
          8880.55     1.605079E-6
         8888.476     1.484476E-6
         8896.403     1.346366E-6
         8904.338     1.274784E-6
          8912.28     1.185078E-6
         8920.234     9.043042E-7
         8928.195     5.185381E-7
         8936.159     6.029819E-7
         8944.135     6.841520E-7
         8952.117     6.591833E-7
         8960.097     6.935156E-7
         8968.094     4.586732E-7
         8976.093     8.175201E-7
         8984.104     8.184287E-7
         8992.122     5.669135E-7
         9000.143     1.010869E-6
         9008.175     4.789125E-7
         9016.205     4.548970E-7
         9024.252     5.894398E-7
         9032.306     6.066945E-7
         9040.362     3.208313E-7
         9048.431     2.294270E-7
         9056.506     3.948728E-7
         9064.579     3.907409E-7
         9072.669     3.108297E-7
         9080.761     4.401464E-7
         9088.865     6.718413E-7
         9096.978     3.341680E-7
         9105.092     2.383451E-7
         9113.218     4.273246E-7
         9121.341     6.360391E-7
         9129.481     2.730744E-7
          9137.63     6.275100E-7
          9145.78     6.096361E-7
         9153.942     5.269580E-7
         9162.112     4.952009E-7
         9170.284     2.996449E-7
         9178.464     3.615536E-7
         9186.655     4.044678E-7
         9194.849     5.212067E-7
         9203.056     5.140506E-7
         9211.264     3.116079E-7
         9219.485     6.525149E-7
         9227.708     3.276438E-7
         9235.938     3.806234E-7
         9244.182     3.528334E-7
         9252.427     2.687595E-7
         9260.685     5.634208E-7
         9268.949     4.572620E-7
         9277.217     3.489386E-7
         9285.492     4.204012E-7
         9293.779     4.192536E-7
         9302.068     3.082130E-7
          9310.37     4.232489E-7
         9318.675     2.099809E-7
         9326.991     1.043939E-7
         9335.315     2.732484E-7
         9343.637     3.445572E-7
         9351.977     1.585305E-7
         9360.317     1.368134E-7
         9368.672     5.538120E-7
         9377.033     5.445547E-7
         9385.396     2.992598E-7
         9393.768     1.932382E-7
         9402.152     3.353465E-7
         9410.538     4.276360E-7
         9418.937     6.821528E-7
         9427.338     2.996215E-7
         9435.752     1.608375E-7
         9444.173     2.842458E-7
         9452.592     4.487781E-7
         9461.028     4.478788E-7
         9469.472     3.459897E-7
         9477.918     2.829940E-7
         9486.377     3.580074E-7
         9494.838     3.110787E-7
         9503.313     1.646472E-7
         9511.788     8.441604E-8
         9520.272     1.218351E-7
          9528.77     7.177879E-8
         9537.269     1.536681E-7
          9545.78     2.577087E-7
           9554.3     2.325449E-7
         9562.821     1.691055E-7
         9571.351     2.605305E-7
         9579.894     2.657285E-7
         9588.438     8.576442E-8
         9596.995     2.255700E-7
         9605.561     2.472420E-7
         9614.128     2.853607E-7
         9622.704     3.542507E-7
         9631.286     2.532291E-7
         9639.882     3.014991E-7
         9648.485     4.135152E-7
         9657.092     4.388024E-7
         9665.711     3.884569E-7
         9674.332     3.921916E-7
         9682.961     4.752170E-7
         9691.603     5.675372E-7
         9700.252     6.989711E-7
         9708.904     5.705050E-7
         9717.569     4.679730E-7
         9726.237     3.693425E-7
         9734.912     3.586114E-7
         9743.601     4.663698E-7
         9752.291     5.679051E-7
         9760.995     4.528092E-7
         9769.701     3.270299E-7
         9778.421     3.323109E-7
         9787.147     2.928074E-7
         9795.872     1.833089E-7
         9804.614     2.093145E-7
         9813.359     3.050354E-7
         9822.118     2.816128E-7
         9830.884     2.434041E-7
         9839.652     2.087759E-7
         9848.435     2.353737E-7
         9857.219     2.047225E-7
         9866.011     2.457560E-7
         9874.816     2.827004E-7
         9883.624     2.725953E-7
         9892.444     2.692253E-7
         9901.273     3.324519E-7
         9910.104     4.126180E-7
         9918.944     4.229647E-7
         9927.791     4.487551E-7
         9936.651     4.965038E-7
         9945.521     5.235058E-7
         9954.391     5.849237E-7
         9963.275     6.591831E-7
         9972.162     6.775214E-7
         9981.057     7.028445E-7
         9989.964     6.727561E-7
          9998.88     6.326578E-7
          10007.8     6.046259E-7
         10016.72     6.092358E-7
         10025.67     5.879874E-7
          10034.6     4.859245E-7
         10043.56     3.962048E-7
         10052.52     3.808508E-7
         10061.49     3.148951E-7
         10070.47     3.244525E-7
         10079.46     2.947717E-7
         10088.45     2.705861E-7
         10097.44     2.378815E-7
         10106.46     2.433973E-7
         10115.48     2.328123E-7
          10124.5     2.099416E-7
         10133.53     2.366574E-7
         10142.58     3.145648E-7
         10151.62     3.552064E-7
         10160.68     3.658724E-7
         10169.74     3.248324E-7
         10178.81     3.184633E-7
          10187.9     2.456956E-7
         10196.99     2.168847E-7
         10206.08     1.705692E-7
         10215.19     1.308141E-7
         10224.31     1.340191E-7
         10233.43     1.551737E-7
         10242.56     1.582482E-7
         10251.69     1.580688E-7
         10260.85     1.545930E-7
           10270.     1.601698E-7
         10279.16     1.950645E-7
         10288.33     2.140815E-7
         10297.51     2.758866E-7
          10306.7     2.851923E-7
         10315.89     2.889533E-7
          10325.1     3.111805E-7
          10334.3     3.385243E-7
         10343.53     3.458747E-7
         10352.76     3.251043E-7
         10361.99     3.011259E-7
         10371.25     2.737157E-7
          10380.5     2.379296E-7
         10389.76     2.085096E-7
         10399.02     2.231049E-7
          10408.3     1.947460E-7
         10417.59     1.676694E-7
         10426.89     1.517324E-7
         10436.19     1.318609E-7
         10445.49     1.040274E-7
         10454.82     8.885892E-8
         10464.15     7.726690E-8
         10473.48     6.468959E-8
         10482.82     6.160365E-8
         10492.17     5.092509E-8
         10501.54     5.611638E-8
         10510.91     5.013557E-8
         10520.29     4.681788E-8
         10529.67     4.550655E-8
         10539.07     4.050541E-8
         10548.47     4.227775E-8
         10557.88     4.709441E-8
         10567.31     4.809464E-8
         10576.73     5.568542E-8
         10586.17     6.623814E-8
         10595.61     7.607490E-8
         10605.06     9.294590E-8
         10614.53     1.103560E-7
           10624.     1.239354E-7
         10633.48     1.373552E-7
         10642.96     1.457694E-7
         10652.45     1.530786E-7
         10661.97     1.545853E-7
         10671.48     1.556209E-7
         10680.99     1.492787E-7
         10690.53     1.392419E-7
         10700.07     1.293515E-7
         10709.61     1.205688E-7
         10719.16     1.099618E-7
         10728.72     1.004010E-7
         10738.31     9.794289E-8
         10747.88     8.759791E-8
         10757.47     8.135545E-8
         10767.08     7.420979E-8
         10776.67     6.770776E-8
         10786.29     6.435896E-8
         10795.91     6.396848E-8
         10805.54     6.000735E-8
         10815.18     5.717786E-8
         10824.83     5.883773E-8
         10834.49     6.126194E-8
         10844.17     6.416452E-8
         10853.84     6.592856E-8
         10863.52     6.798940E-8
         10873.21     7.300141E-8
         10882.91     7.425788E-8
         10892.63     7.487431E-8
         10902.35     7.314596E-8
         10912.07     7.114541E-8
         10921.81     6.820458E-8
         10931.54     6.420147E-8
         10941.31     6.067364E-8
         10951.07     5.861603E-8
         10960.83     5.487264E-8
         10970.62     5.262258E-8
         10980.39     5.243482E-8
          10990.2     5.213680E-8
           11000.     4.734798E-8
