#  Table wf3f170wsys.tab  Mon 12:22:11 02-Jun-97

#      WAVELENGTH      THROUGHPUT
#       angstroms                

            1216.     2.833184E-5
          1217.34     2.919768E-5
         1218.682     3.008042E-5
         1220.026     3.097951E-5
         1221.371     3.180058E-5
         1222.717     3.263481E-5
         1224.065     3.348332E-5
         1225.414     3.434569E-5
         1226.765     3.522221E-5
         1228.117     3.611296E-5
         1229.471     3.701810E-5
         1230.826     3.814137E-5
         1232.183     3.941379E-5
         1233.542     4.070527E-5
         1234.901     4.201424E-5
         1236.262     4.334265E-5
         1237.625     4.468948E-5
         1238.989     4.605626E-5
         1240.355     4.741941E-5
         1241.722     4.873020E-5
         1243.091     5.005656E-5
         1244.461     5.139789E-5
         1245.833     5.275372E-5
         1247.207     5.412611E-5
         1248.582     5.551336E-5
         1249.957     5.691532E-5
         1251.335     5.825648E-5
         1252.715     5.960741E-5
         1254.095     6.096991E-5
         1255.478     6.234594E-5
         1256.862     6.373374E-5
         1258.247     6.513327E-5
         1259.634     6.654600E-5
         1261.023     6.793271E-5
         1262.413     6.931574E-5
         1263.805     7.070875E-5
         1265.198     7.211165E-5
         1266.592     7.352392E-5
         1267.989     7.494706E-5
         1269.387     7.638098E-5
         1270.786     7.778426E-5
         1272.187     7.916565E-5
         1273.588     8.055406E-5
         1274.992     8.195097E-5
         1276.399     8.335627E-5
         1277.805     8.476808E-5
         1279.214     8.618821E-5
         1280.624     8.758947E-5
         1282.035     8.896244E-5
         1283.449     9.034274E-5
         1284.864     9.172828E-5
          1286.28     9.311889E-5
         1287.698     9.451630E-5
         1289.117     9.591953E-5
         1290.538     9.742588E-5
         1291.961     9.909733E-5
         1293.385     1.007743E-4
         1294.811     1.024563E-4
         1296.238     1.041446E-4
         1297.668     1.058395E-4
         1299.098     1.075385E-4
          1300.53     1.092314E-4
         1301.963     1.109080E-4
         1303.398     1.125882E-4
         1304.835     1.142738E-4
         1306.274     1.159647E-4
         1307.713     1.176585E-4
         1309.155     1.193577E-4
         1310.597     1.210484E-4
         1312.042     1.227268E-4
         1313.489     1.244088E-4
         1314.937     1.260953E-4
         1316.386     1.277835E-4
         1317.837     1.294762E-4
          1319.29     1.311717E-4
         1320.744     1.333046E-4
           1322.2     1.358559E-4
         1323.657     1.384116E-4
         1325.117     1.409722E-4
         1326.578     1.435372E-4
         1328.039     1.461054E-4
         1329.503     1.486796E-4
         1330.969     1.512410E-4
         1332.436     1.537968E-4
         1333.905     1.563566E-4
         1335.376     1.589194E-4
         1336.847     1.614844E-4
         1338.321     1.640540E-4
         1339.796     1.666267E-4
         1341.273     1.691857E-4
         1342.752     1.717447E-4
         1344.232     1.743063E-4
         1345.713     1.768688E-4
         1347.197     1.794350E-4
         1348.682     1.820036E-4
         1350.169     1.847631E-4
         1351.657     1.889995E-4
         1353.146     1.932376E-4
         1354.638     1.974635E-4
         1356.131     2.016677E-4
         1357.627     2.058763E-4
         1359.123     2.100818E-4
         1360.621     2.142868E-4
         1362.121     2.184873E-4
         1363.622     2.226864E-4
         1365.126     2.268906E-4
          1366.63     2.310913E-4
         1368.137     2.352950E-4
         1369.645     2.394993E-4
         1371.155     2.437016E-4
         1372.667     2.479084E-4
          1374.18     2.521133E-4
         1375.694     2.563166E-4
         1377.211     2.605221E-4
         1378.729     2.647275E-4
         1380.249     2.696801E-4
         1381.771     2.784508E-4
         1383.294     2.872236E-4
         1384.818     2.959937E-4
         1386.345     3.047698E-4
         1387.874     3.135526E-4
         1389.403     3.223270E-4
         1390.935     3.311230E-4
         1392.468     3.399302E-4
         1394.002     3.487358E-4
          1395.54     3.575527E-4
         1397.078     3.663668E-4
         1398.618     3.751779E-4
          1400.16     3.839996E-4
         1401.703     3.928584E-4
         1403.248     4.017154E-4
         1404.795     4.105848E-4
         1406.343     4.194480E-4
         1407.894     4.283190E-4
         1409.446     4.371926E-4
         1410.999     4.497643E-4
         1412.555     4.644124E-4
         1414.112     4.790602E-4
          1415.67     4.937066E-4
         1417.231     5.083671E-4
         1418.793     5.230337E-4
         1420.357     5.377032E-4
         1421.923     5.523686E-4
         1423.491     5.670384E-4
         1425.059     5.817056E-4
          1426.63     5.963848E-4
         1428.203     6.110676E-4
         1429.777     6.257538E-4
         1431.354     6.404020E-4
         1432.932     6.550440E-4
          1434.51     6.696795E-4
         1436.092     6.843228E-4
         1437.676     6.989737E-4
          1439.26     7.136093E-4
         1440.847     7.303844E-4
         1442.435     7.490200E-4
         1444.024     7.676402E-4
         1445.617     7.862735E-4
          1447.21     8.048790E-4
         1448.805     8.234881E-4
         1450.402     8.420414E-4
         1452.001     8.604303E-4
         1453.602     8.788190E-4
         1455.205     8.971822E-4
         1456.808     9.155166E-4
         1458.414     9.338408E-4
         1460.022     9.521430E-4
         1461.631     9.701592E-4
         1463.243     9.881433E-4
         1464.856     0.001006095
          1466.47     0.001024005
         1468.086     0.001041892
         1469.706     0.001059754
         1471.325     0.001077245
         1472.947     0.001094627
         1474.571     0.001111959
         1476.196     0.001129233
         1477.824     0.001146473
         1479.453     0.001163653
         1481.083     0.001180441
         1482.716     0.001197004
          1484.35     0.001213496
         1485.987     0.001229917
         1487.625     0.001247228
         1489.264     0.001266056
         1490.906     0.001284531
         1492.549      0.00130269
         1494.195     0.001320812
         1495.842     0.001338895
         1497.491     0.001356937
         1499.142     0.001374936
         1500.794     0.001388948
         1502.449     0.001398639
         1504.105     0.001408235
         1505.763     0.001417748
         1507.423     0.001427173
         1509.084     0.001436502
         1510.748     0.001445496
         1512.414      0.00145407
          1514.08     0.001462535
         1515.749     0.001470896
         1517.419     0.001479146
         1519.093     0.001487293
         1520.768     0.001495162
         1522.444     0.001502719
         1524.122     0.001510152
         1525.802     0.001517466
         1527.484     0.001524657
         1529.168     0.001531724
         1530.854     0.001536023
          1532.54     0.001537637
          1534.23     0.001539154
         1535.921      0.00154057
         1537.615     0.001541885
          1539.31     0.001543097
         1541.006      0.00154425
         1542.705      0.00154533
         1544.405     0.001546306
         1546.109     0.001544698
         1547.812     0.001541672
         1549.518     0.001538557
         1551.227      0.00153556
         1552.936     0.001532562
         1554.648     0.001529478
         1556.363     0.001526308
         1558.078     0.001523057
         1559.795      0.00151972
         1561.515     0.001511432
         1563.235     0.001502477
         1564.958     0.001493508
         1566.685     0.001484523
         1568.411     0.001475537
          1570.14     0.001466593
         1571.871     0.001458275
         1573.603     0.001449952
         1575.338     0.001441615
         1577.075     0.001433262
         1578.813     0.001424908
         1580.553     0.001416827
         1582.295      0.00140936
         1584.039     0.001401877
         1585.785     0.001394383
         1587.534      0.00138688
         1589.284     0.001379366
         1591.036     0.001372101
          1592.79      0.00136501
         1594.545     0.001357917
         1596.303     0.001350816
         1598.062      0.00134371
         1599.824     0.001336599
         1601.588     0.001330568
         1603.353     0.001324653
          1605.12      0.00131873
          1606.89       0.0013128
         1608.661     0.001306865
         1610.434     0.001301233
          1612.21     0.001296549
         1613.986      0.00129186
         1615.765     0.001287162
         1617.548     0.001282456
          1619.33     0.001277747
         1621.115       0.0012742
         1622.902     0.001271346
          1624.69     0.001268486
         1626.482     0.001265614
         1628.275     0.001262735
         1630.069     0.001259897
         1631.867     0.001258321
         1633.665     0.001256739
         1635.466     0.001255148
         1637.269     0.001253551
         1639.074     0.001251947
          1640.88     0.001251005
         1642.689     0.001250764
           1644.5     0.001250518
         1646.313     0.001250268
         1648.128      0.00125009
         1649.944     0.001250901
         1651.763      0.00125252
         1653.585     0.001254165
         1655.407     0.001255807
         1657.232     0.001257451
         1659.058     0.001259092
         1660.888      0.00126137
         1662.719     0.001264325
         1664.552     0.001267286
         1666.386     0.001270251
         1668.223     0.001273223
         1670.062     0.001276241
         1671.903     0.001280399
         1673.746     0.001284569
          1675.59      0.00128875
         1677.437     0.001292946
         1679.287     0.001297154
         1681.139     0.001301073
         1682.991     0.001304804
         1684.847     0.001308543
         1686.704     0.001312287
         1688.563     0.001316034
         1690.425     0.001319995
         1692.287      0.00132465
         1694.153     0.001329318
         1696.021     0.001333995
          1697.89     0.001338679
         1699.762     0.001343377
         1701.636     0.001348756
         1703.512     0.001354249
         1705.389     0.001359751
         1707.269      0.00136527
         1709.151     0.001370802
         1711.035     0.001376902
         1712.922     0.001383476
         1714.809     0.001390069
         1716.699     0.001396686
         1718.592     0.001403325
         1720.485     0.001410119
         1722.383     0.001417344
         1724.281     0.001424585
         1726.182     0.001431856
         1728.086     0.001439156
          1729.99     0.001446474
         1731.897     0.001454267
         1733.806     0.001462091
         1735.718     0.001469943
          1737.63      0.00147782
         1739.546     0.001485728
         1741.463     0.001493639
         1743.383     0.001501568
         1745.305     0.001509522
         1747.228     0.001517497
         1749.154     0.001525502
         1751.084     0.001532196
         1753.013     0.001537846
         1754.946     0.001543504
          1756.88     0.001549167
         1758.817     0.001554835
         1760.756     0.001560585
         1762.697     0.001566463
         1764.639     0.001572343
         1766.585     0.001578231
         1768.532     0.001584124
         1770.482     0.001589656
         1772.434     0.001594062
         1774.387     0.001598454
         1776.343      0.00160283
         1778.301     0.001607194
         1780.262      0.00161157
         1782.224     0.001616085
         1784.189     0.001620588
         1786.156     0.001625076
         1788.124     0.001629546
         1790.096     0.001634015
         1792.068     0.001638651
         1794.044     0.001643273
         1796.022      0.00164788
         1798.001     0.001652468
         1799.984     0.001657044
         1801.968     0.001659046
         1803.954     0.001660977
         1805.942     0.001662859
         1807.933      0.00166469
         1809.926     0.001666471
         1811.922     0.001668378
         1813.919     0.001670238
         1815.918     0.001672046
          1817.92     0.001673801
         1819.925     0.001675503
          1821.93     0.001677314
         1823.938     0.001679076
         1825.948     0.001680783
         1827.962     0.001682436
         1829.976      0.00168403
         1831.995      0.00168472
         1834.013     0.001685328
         1836.035     0.001685865
         1838.059     0.001686331
         1840.084      0.00168673
         1842.113      0.00168721
         1844.144     0.001687614
         1846.177     0.001687945
         1848.212     0.001688199
         1850.248     0.001688397
         1852.288     0.001688658
          1854.33     0.001688841
         1856.375     0.001688945
         1858.421     0.001688969
         1860.469     0.001688437
          1862.52     0.001686203
         1864.573     0.001683858
         1866.628       0.0016814
         1868.686      0.00167883
         1870.746     0.001676201
         1872.808     0.001673552
         1874.872     0.001670787
         1876.939     0.001667904
         1879.008     0.001664896
         1881.079     0.001660404
         1883.153     0.001655867
         1885.229      0.00165121
         1887.307     0.001646437
         1889.387     0.001641542
         1891.471     0.001634035
         1893.555     0.001625343
         1895.643     0.001616483
         1897.732     0.001607459
         1899.823     0.001598275
         1901.919     0.001589048
         1904.014     0.001579674
         1906.113     0.001570125
         1908.215     0.001560405
         1910.317     0.001550537
         1912.424     0.001540593
         1914.532     0.001530481
         1916.643     0.001520184
         1918.755     0.001509718
          1920.87     0.001499921
         1922.988     0.001491181
         1925.107     0.001482283
          1927.23     0.001473214
         1929.354     0.001463992
         1931.481     0.001454678
          1933.61     0.001445231
          1935.74     0.001435621
         1937.875     0.001425833
         1940.011     0.001415887
         1942.149     0.001405842
          1944.29     0.001395626
         1946.434     0.001385237
          1948.58     0.001374673
         1950.728     0.001362965
         1952.878     0.001349166
          1955.03     0.001335163
         1957.185     0.001320939
         1959.343     0.001306503
         1961.503     0.001291888
         1963.665     0.001277072
         1965.829     0.001262045
         1967.996     0.001246793
         1970.167     0.001231317
         1972.339     0.001215689
         1974.512     0.001199845
         1976.689     0.001183767
         1978.868     0.001167463
         1981.049     0.001153659
         1983.233     0.001142615
         1985.418     0.001131408
         1987.607     0.001120024
         1989.798      0.00110847
         1991.992     0.001096775
         1994.188     0.001084908
         1996.386     0.001072868
         1998.586     0.001060658
         2000.789     0.001048597
         2002.996     0.001036935
         2005.203     0.001025086
         2007.414     0.001013032
         2009.627     0.001000777
         2011.841     9.876314E-4
          2014.06     9.741180E-4
         2016.279     9.604020E-4
         2018.502     9.464610E-4
         2020.727     9.322966E-4
         2022.955     9.179039E-4
         2025.185     9.032893E-4
         2027.417     8.884503E-4
         2029.652     8.733876E-4
         2031.889     8.580972E-4
         2034.129     8.425711E-4
         2036.371     8.268144E-4
         2038.616     8.108281E-4
         2040.864     7.950165E-4
         2043.112     7.796393E-4
         2045.365     7.640340E-4
         2047.621     7.481971E-4
         2049.877     7.321532E-4
         2052.137     7.158440E-4
         2054.399     6.993099E-4
         2056.664     6.825490E-4
         2058.931     6.655582E-4
         2061.201     6.483145E-4
         2063.472     6.308287E-4
         2065.747     6.131056E-4
         2068.024     5.951492E-4
         2070.304     5.769545E-4
         2072.586     5.584913E-4
         2074.871     5.397971E-4
         2077.157     5.208743E-4
         2079.447     5.017077E-4
          2081.74     4.822595E-4
         2084.034     4.625819E-4
         2086.332     4.426594E-4
         2088.632     4.224968E-4
         2090.933     4.082210E-4
          2093.24     4.027876E-4
         2095.546     3.972866E-4
         2097.856     3.917086E-4
         2100.169     3.860194E-4
         2102.483     3.797961E-4
         2104.802     3.734871E-4
         2107.121     3.671056E-4
         2109.444     3.606406E-4
         2111.769     3.555673E-4
         2114.097     3.508952E-4
         2116.428     3.461642E-4
          2118.76     3.413765E-4
         2121.097     3.363006E-4
         2123.434     3.309155E-4
         2125.775     3.254653E-4
         2128.118     3.199519E-4
         2130.463     3.146567E-4
         2132.813     3.104344E-4
         2135.163     3.061683E-4
         2137.518     3.018494E-4
         2139.875     2.975677E-4
         2142.231     2.930312E-4
         2144.594     2.884233E-4
         2146.958     2.837653E-4
         2149.325     2.790550E-4
         2151.693     2.751225E-4
         2154.065     2.714774E-4
          2156.44     2.677928E-4
         2158.817     2.640678E-4
         2161.197     2.601976E-4
         2163.578     2.561866E-4
         2165.964     2.521330E-4
         2168.353     2.480372E-4
         2170.743     2.442163E-4
         2173.135     2.410587E-4
         2175.529     2.378713E-4
         2177.929     2.346505E-4
         2180.329     2.313475E-4
         2182.733     2.276584E-4
         2185.138     2.239420E-4
         2187.547     2.201924E-4
         2189.959     2.164114E-4
         2192.372     2.135713E-4
         2194.789     2.107249E-4
         2197.208     2.078561E-4
         2199.632     2.049639E-4
         2202.056     2.030964E-4
         2204.482     2.013514E-4
         2206.912     1.995368E-4
         2209.345     1.976529E-4
         2211.782     1.961930E-4
         2214.219     1.948593E-4
          2216.66     1.934693E-4
         2219.104     1.920232E-4
         2221.549     1.904203E-4
         2223.998     1.887002E-4
         2226.449     1.869212E-4
         2228.904     1.850829E-4
         2231.361     1.835047E-4
          2233.82     1.821341E-4
         2236.284     1.807138E-4
         2238.748     1.792463E-4
         2241.217     1.777062E-4
         2243.687     1.760958E-4
         2246.159     1.744366E-4
         2248.636     1.727262E-4
         2251.114     1.711991E-4
         2253.597     1.699117E-4
          2256.08     1.685853E-4
         2258.567     1.672180E-4
         2261.057     1.657432E-4
         2263.548     1.641369E-4
         2266.045     1.624862E-4
         2268.542     1.607943E-4
         2271.042     1.592920E-4
         2273.546     1.580805E-4
         2276.051     1.568360E-4
         2278.562     1.555563E-4
         2281.072     1.542100E-4
         2283.588     1.527823E-4
         2286.104     1.513209E-4
         2288.623     1.498243E-4
         2291.147     1.484730E-4
         2293.672     1.473107E-4
         2296.202     1.461227E-4
         2298.732     1.449605E-4
         2301.266     1.436751E-4
         2303.803     1.422652E-4
         2306.342     1.408223E-4
         2308.885     1.393444E-4
         2311.431     1.381524E-4
         2313.979     1.371824E-4
          2316.53     1.361869E-4
         2319.082     1.351664E-4
         2321.639     1.340266E-4
         2324.198     1.328073E-4
          2326.76     1.315603E-4
         2329.325     1.302855E-4
         2331.892     1.292749E-4
         2334.463     1.283450E-4
         2337.038     1.273922E-4
         2339.613     1.264180E-4
         2342.193     1.252785E-4
         2344.774     1.240906E-4
         2347.357     1.228780E-4
         2349.947     1.216392E-4
         2352.536     1.207404E-4
         2355.131     1.198286E-4
         2357.726     1.188978E-4
         2360.326     1.179337E-4
         2362.927     1.168647E-4
         2365.531     1.157744E-4
          2368.14     1.146618E-4
         2370.749     1.136286E-4
         2373.364     1.128237E-4
         2375.979     1.120029E-4
         2378.598     1.111649E-4
          2381.22     1.102555E-4
         2383.844     1.092665E-4
         2386.473     1.082583E-4
         2389.103     1.072329E-4
         2391.737     1.063641E-4
         2394.373     1.055707E-4
         2397.012     1.047628E-4
         2399.656     1.039391E-4
           2402.3     1.030286E-4
         2404.949     1.020907E-4
           2407.6     1.011375E-4
         2410.252     1.001953E-4
          2412.91     9.948502E-5
          2415.57     9.876268E-5
         2418.233     9.802773E-5
         2420.898     9.724376E-5
         2423.567     9.637371E-5
         2426.238     9.549009E-5
         2428.913     9.459262E-5
         2431.591     9.382288E-5
         2434.271     9.313826E-5
         2436.954     9.244295E-5
         2439.641     9.173583E-5
         2442.331     9.099753E-5
         2445.022     9.024520E-5
         2447.718     8.948110E-5
         2450.416     8.872661E-5
         2453.117     8.807670E-5
         2455.822     8.741683E-5
         2458.528     8.674728E-5
         2461.239     8.604445E-5
         2463.951     8.530510E-5
         2466.669     8.455451E-5
         2469.387     8.379405E-5
         2472.108     8.317840E-5
         2474.834     8.259866E-5
         2477.561     8.201088E-5
         2480.294     8.140757E-5
         2483.027     8.074393E-5
         2485.764     8.007067E-5
         2488.504     7.938808E-5
         2491.246     7.878399E-5
         2493.994     7.827635E-5
         2496.742     7.776173E-5
         2499.494     7.723922E-5
          2502.25     7.663678E-5
         2505.007     7.601000E-5
          2507.77     7.537403E-5
         2510.533     7.476124E-5
         2513.302     7.427059E-5
         2516.072     7.377326E-5
         2518.844     7.326877E-5
         2521.622     7.272118E-5
         2524.401     7.214125E-5
         2527.185     7.155285E-5
         2529.969     7.095704E-5
         2532.759     7.053086E-5
         2535.551     7.010031E-5
         2538.344     6.958710E-5
         2541.144     6.896078E-5
         2543.946     6.829353E-5
          2546.75     6.762164E-5
         2549.558     6.694506E-5
         2552.367     6.637452E-5
          2555.18     6.582020E-5
         2557.997     6.526182E-5
         2560.817     6.468756E-5
         2563.639     6.408049E-5
         2566.465     6.346877E-5
         2569.294     6.285276E-5
         2572.128     6.230042E-5
         2574.962     6.176724E-5
           2577.8     6.123022E-5
         2580.643     6.068461E-5
         2583.486     6.012137E-5
         2586.336     5.955349E-5
         2589.186     5.898218E-5
         2592.039     5.850502E-5
         2594.897     5.806320E-5
         2597.757     5.761841E-5
         2600.622     5.716079E-5
         2603.487     5.666766E-5
         2606.357     5.617058E-5
         2609.231     5.566980E-5
         2612.106     5.523546E-5
         2614.985     5.482309E-5
          2617.87     5.440722E-5
         2620.754     5.398035E-5
         2623.643     5.352676E-5
         2626.536     5.306967E-5
         2629.431     5.260908E-5
         2632.328     5.219498E-5
         2635.232     5.178934E-5
         2638.135     5.138087E-5
         2641.045     5.096112E-5
         2643.955     5.052487E-5
          2646.87     5.008498E-5
         2649.788     4.964173E-5
         2652.708     4.929771E-5
         2655.633     4.895850E-5
          2658.56     4.861676E-5
          2661.49     4.826099E-5
         2664.424     4.789152E-5
          2667.36     4.751924E-5
         2670.302     4.715000E-5
         2673.244     4.683446E-5
         2676.193     4.651589E-5
         2679.142     4.619495E-5
         2682.094     4.587297E-5
         2685.052     4.554864E-5
         2688.012     4.522177E-5
         2690.975     4.490080E-5
          2693.94     4.459494E-5
          2696.91     4.428636E-5
         2699.883     4.397520E-5
         2702.858     4.371755E-5
         2705.839     4.345835E-5
         2708.822     4.319565E-5
         2711.807     4.298428E-5
         2714.796     4.280555E-5
         2717.789     4.262394E-5
         2720.785     4.241927E-5
         2723.785     4.215442E-5
         2726.788     4.188595E-5
         2729.792     4.161400E-5
         2732.802     4.142520E-5
         2735.814     4.123999E-5
          2738.83     4.105196E-5
         2741.849     4.083671E-5
         2744.872     4.060286E-5
         2747.898     4.036579E-5
         2750.926     4.011546E-5
         2753.958     3.984036E-5
         2756.994     3.956435E-5
         2760.034     3.928711E-5
         2763.076     3.898110E-5
         2766.121     3.867424E-5
         2769.172     3.836605E-5
         2772.223     3.808726E-5
         2775.281     3.781852E-5
         2778.339     3.754917E-5
           2781.4     3.725937E-5
         2784.468     3.694512E-5
         2787.536     3.663016E-5
          2790.61     3.632766E-5
         2793.685     3.608005E-5
         2796.765     3.583154E-5
         2799.848     3.558227E-5
         2802.933     3.527774E-5
         2806.025     3.496917E-5
         2809.117     3.465996E-5
         2812.213     3.438964E-5
         2815.314     3.413449E-5
         2818.417     3.387857E-5
         2821.524     3.362842E-5
         2824.633     3.338447E-5
         2827.749     3.313955E-5
         2830.865     3.289000E-5
         2833.985     3.262873E-5
         2837.109     3.236673E-5
         2840.236     3.210616E-5
         2843.368     3.187043E-5
         2846.501     3.163425E-5
         2849.641     3.139715E-5
         2852.781     3.114631E-5
         2855.924     3.089305E-5
         2859.074     3.063882E-5
         2862.226     3.040428E-5
         2865.381     3.017754E-5
          2868.54     2.995017E-5
         2871.701     2.973770E-5
         2874.866     2.953780E-5
         2878.036     2.933735E-5
         2881.208     2.911364E-5
         2884.385     2.885229E-5
         2887.563     2.859037E-5
         2890.748     2.835188E-5
         2893.935     2.819245E-5
         2897.123     2.803268E-5
         2900.317     2.785869E-5
         2903.515     2.756031E-5
         2906.715     2.726234E-5
          2909.92     2.696475E-5
         2913.126     2.671092E-5
         2916.338     2.645837E-5
         2919.552     2.620618E-5
         2922.773     2.595389E-5
         2925.993     2.570215E-5
         2929.217     2.545075E-5
         2932.448     2.519906E-5
         2935.679     2.494782E-5
         2938.916     2.469683E-5
         2942.155     2.446609E-5
         2945.399     2.424566E-5
         2948.646     2.402553E-5
         2951.895     2.380542E-5
         2955.151     2.358511E-5
         2958.407     2.336536E-5
         2961.668     2.313067E-5
         2964.933     2.288188E-5
           2968.2     2.263361E-5
         2971.474     2.239874E-5
         2974.748     2.218058E-5
         2978.027     2.196267E-5
          2981.31     2.173908E-5
         2984.595     2.150691E-5
         2987.887     2.127493E-5
         2991.179     2.105414E-5
         2994.477     2.085253E-5
         2997.778     2.065127E-5
         3001.083     2.044543E-5
         3004.391     2.022992E-5
         3007.702     2.001490E-5
         3011.019     1.982263E-5
         3014.337     1.968173E-5
         3017.658     1.954103E-5
         3020.987     1.937858E-5
         3024.317     1.916482E-5
         3027.651     1.895147E-5
         3030.987     1.873856E-5
         3034.328     1.852585E-5
         3037.673     1.831356E-5
         3041.022     1.811948E-5
         3044.375     1.796626E-5
         3047.731     1.781332E-5
         3051.089     1.765122E-5
         3054.454     1.746951E-5
          3057.82     1.728833E-5
         3061.191     1.711767E-5
         3064.565     1.696606E-5
         3067.944     1.681473E-5
         3071.326     1.666369E-5
          3074.71     1.651302E-5
           3078.1     1.636256E-5
         3081.495     1.619319E-5
          3084.89     1.600007E-5
         3088.292     1.580720E-5
         3091.696     1.563641E-5
         3095.102     1.548759E-5
         3098.516     1.533891E-5
          3101.93     1.521758E-5
         3105.351     1.511645E-5
         3108.773     1.501486E-5
           3112.2     1.494052E-5
         3115.631     1.488134E-5
         3119.064     1.482182E-5
         3122.504     1.472997E-5
         3125.945     1.462573E-5
         3129.391     1.452085E-5
         3132.841     1.442742E-5
         3136.294     1.433603E-5
         3139.752     1.424412E-5
         3143.211     1.416569E-5
         3146.678     1.408781E-5
         3150.145     1.400955E-5
         3153.618     1.393064E-5
         3157.095     1.385129E-5
         3160.573     1.376904E-5
         3164.059     1.367360E-5
         3167.546     1.357772E-5
         3171.039     1.349023E-5
         3174.533     1.342367E-5
         3178.031     1.335673E-5
         3181.536     1.328266E-5
         3185.044     1.319963E-5
         3188.555     1.311613E-5
         3192.068     1.305038E-5
         3195.587     1.299693E-5
          3199.11     1.294316E-5
         3202.637     1.286568E-5
         3206.167     1.277984E-5
           3209.7     1.269356E-5
         3213.239     1.265024E-5
         3216.781     1.261067E-5
         3220.327     1.256496E-5
         3223.877     1.246106E-5
         3227.431     1.235658E-5
         3230.989     1.226935E-5
         3234.549     1.222805E-5
         3238.115     1.218646E-5
         3241.685     1.212943E-5
         3245.259     1.205503E-5
         3248.836     1.198020E-5
         3252.418     1.190486E-5
         3256.003     1.182905E-5
         3259.591     1.175285E-5
         3263.186     1.170533E-5
         3266.781     1.166131E-5
         3270.383     1.161526E-5
         3273.988     1.155423E-5
         3277.596     1.149287E-5
         3281.209     1.143108E-5
         3284.826     1.136886E-5
         3288.449     1.130624E-5
         3292.073     1.124340E-5
           3295.7     1.118026E-5
         3299.335     1.111668E-5
          3302.97     1.105282E-5
         3306.614     1.098852E-5
         3310.257     1.092633E-5
         3313.906     1.089565E-5
         3317.559     1.086476E-5
         3321.215     1.081649E-5
         3324.878     1.073320E-5
         3328.542     1.064954E-5
         3332.211     1.060742E-5
         3335.885     1.059285E-5
          3339.56     1.057816E-5
         3343.244     1.051692E-5
         3346.927     1.044907E-5
         3350.619     1.038669E-5
         3354.311     1.035353E-5
         3358.007     1.032015E-5
          3361.71     1.027004E-5
         3365.415     1.020045E-5
         3369.126     1.013038E-5
         3372.839     1.006009E-5
         3376.557     9.989392E-6
         3380.279     9.919648E-6
         3384.004     9.866366E-6
         3387.736     9.812706E-6
         3391.469     9.787589E-6
         3395.208     9.806836E-6
         3398.953     9.826131E-6
         3402.698     9.779068E-6
         3406.449     9.705836E-6
         3410.204     9.634191E-6
         3413.964     9.597374E-6
         3417.727     9.560319E-6
         3421.493     9.515673E-6
         3425.265     9.459478E-6
         3429.043     9.402914E-6
         3432.821     9.360282E-6
         3436.606     9.322193E-6
         3440.394     9.283859E-6
         3444.185     9.245337E-6
         3447.984     9.206517E-6
         3451.783     9.158545E-6
         3455.588     9.100107E-6
         3459.398     9.041309E-6
         3463.211     8.998511E-6
         3467.029     8.958506E-6
          3470.85     8.918297E-6
         3474.678     8.877909E-6
         3478.506     8.837294E-6
         3482.339     8.796506E-6
          3486.18     8.755463E-6
         3490.023     8.714294E-6
         3493.871     8.692661E-6
          3497.72     8.670872E-6
         3501.576     8.632604E-6
         3505.437     8.570442E-6
         3509.301     8.507888E-6
          3513.17     8.461626E-6
         3517.041     8.418771E-6
         3520.918     8.380431E-6
         3524.799     8.357434E-6
         3528.685     8.334258E-6
         3532.575     8.297477E-6
         3536.468     8.253588E-6
         3540.368     8.211303E-6
         3544.269     8.187488E-6
         3548.176     8.163478E-6
         3552.088     8.128219E-6
         3556.004     8.083020E-6
         3559.924     8.037518E-6
         3563.846     7.991871E-6
         3567.777     7.945877E-6
         3571.708     7.899631E-6
         3575.644     7.853096E-6
         3579.588     7.806207E-6
         3583.534     7.778330E-6
         3587.484     7.752507E-6
         3591.439     7.726495E-6
         3595.396     7.700317E-6
          3599.36     7.673926E-6
         3603.328     7.647436E-6
         3607.301     7.620763E-6
         3611.277     7.593868E-6
         3615.256     7.566740E-6
         3619.242     7.539395E-6
         3623.234     7.512001E-6
         3627.226     7.484468E-6
         3631.223     7.449888E-6
         3635.228     7.399447E-6
         3639.237     7.348674E-6
         3643.247     7.315849E-6
         3647.261     7.287088E-6
         3651.284     7.258120E-6
         3655.307     7.229046E-6
         3659.335     7.199754E-6
         3663.371     7.170227E-6
         3667.408     7.140512E-6
         3671.453     7.110556E-6
         3675.498     7.080424E-6
         3679.552     7.050040E-6
         3683.606     7.019470E-6
         3687.665     6.988678E-6
         3691.732     6.957639E-6
           3695.8     6.926412E-6
         3699.876     6.894927E-6
         3703.953     6.886210E-6
         3708.039     6.878100E-6
         3712.124     6.857520E-6
         3716.215     6.825300E-6
         3720.313     6.792815E-6
         3724.413     6.760138E-6
         3728.521     6.727193E-6
         3732.629     6.694046E-6
         3736.746     6.660631E-6
         3740.863     6.632128E-6
         3744.985     6.622769E-6
         3749.116     6.613300E-6
         3753.247     6.584370E-6
         3757.386     6.549896E-6
         3761.526     6.524335E-6
         3765.675     6.514238E-6
         3769.824     6.504048E-6
         3773.978     6.469824E-6
         3778.141     6.434259E-6
         3782.304     6.398439E-6
         3786.473     6.362311E-6
         3790.648     6.329863E-6
         3794.824     6.318674E-6
          3799.01     6.307365E-6
         3803.196     6.276424E-6
         3807.389     6.239165E-6
         3811.586     6.211391E-6
          3815.79     6.199495E-6
         3819.994     6.187495E-6
         3824.203     6.175298E-6
         3828.419     6.162982E-6
          3832.64     6.134107E-6
         3836.865     6.095142E-6
         3841.095     6.062766E-6
         3845.331     6.049831E-6
         3849.568     6.036790E-6
          3853.81     6.023559E-6
         3858.058     6.010195E-6
         3862.312     5.982038E-6
         3866.572     5.941293E-6
         3870.832     5.905607E-6
         3875.099     5.891530E-6
         3879.369     5.877338E-6
         3883.646     5.862946E-6
         3887.927     5.848422E-6
         3892.213     5.833766E-6
         3896.504     5.818979E-6
           3900.8     5.798891E-6
           3905.1     5.755944E-6
         3909.403     5.712739E-6
         3913.712     5.693278E-6
         3918.027     5.677552E-6
         3922.346     5.661652E-6
          3926.67     5.645582E-6
         3930.999     5.629383E-6
         3935.333     5.613043E-6
         3939.669     5.596586E-6
         3944.012     5.579839E-6
          3948.36     5.562950E-6
         3952.712     5.527955E-6
          3957.07     5.481828E-6
         3961.432     5.454413E-6
         3965.799     5.465810E-6
         3970.169     5.474967E-6
         3974.546     5.427797E-6
         3978.927     5.380340E-6
         3983.314     5.377070E-6
         3987.705     5.388186E-6
         3992.101     5.370886E-6
           3996.5     5.322326E-6
         4000.906     5.283299E-6
         4005.316     5.282222E-6
         4009.732     5.281140E-6
         4014.152     5.251853E-6
         4018.577     5.220717E-6
         4023.008     5.189488E-6
          4027.44     5.158217E-6
          4031.88     5.126868E-6
         4036.325     5.095441E-6
         4040.775     5.063973E-6
         4045.229     5.032405E-6
         4049.689     5.000817E-6
         4054.153     4.969119E-6
          4058.62     4.937410E-6
         4063.094     4.905603E-6
         4067.574     4.873751E-6
         4072.058     4.841838E-6
         4076.547     4.809857E-6
         4081.041     4.777839E-6
         4085.538     4.745753E-6
         4090.042     4.713636E-6
         4094.548     4.681502E-6
         4099.064     4.649317E-6
         4103.583     4.641117E-6
         4108.107     4.639177E-6
         4112.636     4.619507E-6
         4117.165     4.587121E-6
         4121.706     4.554620E-6
          4126.25     4.522033E-6
         4130.799     4.489431E-6
         4135.353     4.456803E-6
         4139.911     4.424167E-6
         4144.473     4.421483E-6
          4149.04     4.419390E-6
         4153.616     4.392978E-6
         4158.195     4.360112E-6
         4162.779     4.327232E-6
         4167.366     4.294355E-6
         4171.962     4.274511E-6
         4176.559     4.272221E-6
         4181.163     4.262163E-6
         4185.772     4.229119E-6
         4190.385     4.196078E-6
         4195.006     4.162939E-6
         4199.629     4.129822E-6
         4204.261     4.102901E-6
         4208.894     4.076454E-6
         4213.531     4.073487E-6
         4218.178     4.077911E-6
         4222.826     4.063380E-6
         4227.484     4.036520E-6
         4232.142     4.009593E-6
          4236.81     3.982536E-6
         4241.478     3.965326E-6
         4246.151     3.969495E-6
         4250.835     3.968049E-6
         4255.519     3.940640E-6
         4260.212     3.913102E-6
         4264.907     3.885431E-6
         4269.606     3.857669E-6
         4274.315     3.858991E-6
         4279.025     3.862982E-6
         4283.744     3.841528E-6
         4288.464     3.813382E-6
         4293.194     3.806822E-6
         4297.925     3.810690E-6
         4302.661     3.796406E-6
         4307.406     3.767852E-6
         4312.152     3.739228E-6
         4316.909     3.710475E-6
         4321.665     3.693042E-6
         4326.432     3.696735E-6
         4331.199     3.692213E-6
         4335.971     3.663159E-6
         4340.753     3.639145E-6
         4345.537     3.642719E-6
          4350.33     3.644030E-6
         4355.123     3.614544E-6
         4359.926     3.584935E-6
          4364.73     3.587940E-6
          4369.54     3.591457E-6
         4374.359     3.564795E-6
         4379.179     3.534884E-6
         4384.009     3.532613E-6
          4388.84     3.536023E-6
          4393.68     3.513854E-6
         4398.521     3.483558E-6
         4403.368     3.476618E-6
         4408.225     3.479971E-6
         4413.082     3.461817E-6
          4417.95     3.431158E-6
         4422.817     3.420100E-6
         4427.696     3.423346E-6
         4432.574     3.408562E-6
         4437.458     3.377551E-6
         4442.353     3.362919E-6
         4447.248     3.366102E-6
         4452.153     3.354155E-6
         4457.059     3.322810E-6
          4461.97     3.305219E-6
         4466.891     3.308297E-6
         4471.813     3.298607E-6
         4476.745     3.266893E-6
         4481.678     3.246959E-6
         4486.618     3.249980E-6
         4491.564     3.241942E-6
         4496.514     3.209923E-6
         4501.473     3.191938E-6
         4506.433     3.207454E-6
         4511.401     3.222987E-6
         4516.375     3.238507E-6
         4521.355     3.244265E-6
         4526.337     3.223619E-6
         4531.325     3.212267E-6
          4536.32     3.227522E-6
         4541.321     3.233060E-6
         4546.328     3.211237E-6
         4551.339     3.199022E-6
         4556.357     3.214055E-6
          4561.38     3.229096E-6
         4566.406     3.244114E-6
          4571.44     3.248247E-6
         4576.479     3.224886E-6
         4581.527     3.212821E-6
         4586.575     3.227566E-6
         4591.632     3.229742E-6
         4596.691     3.205235E-6
         4601.758     3.194033E-6
         4606.832     3.208511E-6
          4611.91     3.223009E-6
         4616.994     3.237525E-6
         4622.084     3.235511E-6
          4627.18     3.209345E-6
         4632.278     3.201058E-6
         4637.385     3.215297E-6
         4642.497     3.229553E-6
         4647.615     3.243827E-6
         4652.738     3.235816E-6
         4657.868     3.208065E-6
         4663.002     3.204563E-6
         4668.141     3.218498E-6
         4673.287     3.232489E-6
         4678.438     3.246516E-6
         4683.596     3.230498E-6
         4688.759     3.201081E-6
         4693.928     3.204346E-6
           4699.1     3.218029E-6
         4704.281     3.231778E-6
         4709.467     3.245554E-6
         4714.658     3.219348E-6
         4719.856     3.188173E-6
         4725.059     3.200396E-6
         4730.268     3.213877E-6
          4735.48     3.227322E-6
         4740.701     3.234662E-6
         4745.927     3.202208E-6
         4751.159     3.179559E-6
         4756.396     3.192714E-6
          4761.64     3.205901E-6
         4766.889     3.219141E-6
         4772.142     3.213164E-6
         4777.402     3.178932E-6
         4782.669     3.168411E-6
         4787.941     3.181302E-6
          4793.22     3.194240E-6
         4798.504     3.207215E-6
         4803.791     3.220199E-6
         4809.087     3.233208E-6
         4814.389     3.205488E-6
         4819.696     3.168896E-6
         4825.009     3.178749E-6
         4830.328     3.191452E-6
         4835.653     3.204172E-6
         4840.981     3.216902E-6
         4846.318     3.229658E-6
         4851.661     3.226576E-6
         4857.009     3.188039E-6
         4862.364     3.171805E-6
         4867.724     3.184251E-6
          4873.09     3.196710E-6
         4878.457     3.209173E-6
         4883.838     3.221673E-6
         4889.222     3.234183E-6
         4894.612     3.201335E-6
         4900.008     3.160485E-6
         4905.409     3.172714E-6
         4910.814     3.184946E-6
         4916.228     3.197156E-6
         4921.648     3.209384E-6
         4927.074     3.221625E-6
         4932.505     3.208564E-6
          4937.94     3.165604E-6
         4943.386     3.156651E-6
         4948.833     3.168621E-6
         4954.289     3.180611E-6
          4959.75     3.192617E-6
         4965.216     3.204582E-6
         4970.692     3.209400E-6
         4976.169     3.164379E-6
         4981.658     3.136166E-6
         4987.146     3.147856E-6
         4992.642     3.159560E-6
         4998.148     3.171294E-6
         5003.656     3.184492E-6
         5009.174     3.198464E-6
         5014.694     3.212442E-6
         5020.219     3.226441E-6
         5025.756     3.240524E-6
         5031.294     3.240563E-6
         5036.843     3.194109E-6
         5042.394     3.173343E-6
         5047.955     3.187032E-6
         5053.517     3.200692E-6
         5059.085     3.214350E-6
         5064.665     3.228086E-6
         5070.246     3.239093E-6
         5075.838     3.190083E-6
         5081.431     3.156657E-6
         5087.036     3.169947E-6
         5092.641     3.183268E-6
         5098.252     3.196635E-6
         5103.875     3.210034E-6
         5109.499     3.223438E-6
         5115.134     3.236875E-6
         5120.771     3.241373E-6
         5126.418     3.188973E-6
         5132.067     3.160203E-6
         5137.722     3.173165E-6
         5143.389     3.186188E-6
         5149.056     3.199239E-6
         5154.735     3.212322E-6
         5160.415     3.225409E-6
         5166.107     3.238526E-6
         5171.799     3.251648E-6
         5177.498     3.264790E-6
         5183.208     3.238984E-6
         5188.919     3.182332E-6
         5194.643     3.181868E-6
         5200.366     3.194585E-6
         5206.102     3.207286E-6
         5211.838     3.220007E-6
         5217.581     3.232781E-6
         5223.336     3.245555E-6
         5229.091     3.258312E-6
         5234.859     3.271097E-6
         5240.627     3.275968E-6
         5246.407     3.215462E-6
         5252.188     3.182258E-6
         5257.975     3.194661E-6
         5263.774     3.207019E-6
         5269.574     3.219341E-6
         5275.383     3.231738E-6
         5281.199     3.244158E-6
         5287.018     3.256589E-6
          5292.85     3.269020E-6
         5298.682     3.281424E-6
         5304.523     3.234260E-6
         5310.371     3.174048E-6
         5316.228     3.186071E-6
         5322.085     3.198060E-6
          5327.95     3.209989E-6
         5333.826     3.221984E-6
         5339.703     3.233999E-6
          5345.59     3.246040E-6
         5351.483     3.258081E-6
         5357.385     3.270098E-6
         5363.289     3.282119E-6
         5369.198     3.294157E-6
         5375.117     3.235671E-6
         5381.042     3.179931E-6
         5386.978     3.191521E-6
         5392.914     3.203086E-6
         5398.858     3.214639E-6
         5404.807     3.226202E-6
         5410.766     3.237786E-6
          5416.73     3.249384E-6
         5422.702     3.260970E-6
          5428.68     3.272536E-6
         5434.665     3.284118E-6
         5440.656     3.295712E-6
         5446.651     3.307313E-6
         5452.655     3.318907E-6
         5458.666     3.330478E-6
         5464.684     3.274012E-6
         5470.708     3.207851E-6
         5476.739     3.218899E-6
         5482.777     3.229959E-6
         5488.818     3.241028E-6
         5494.869     3.252114E-6
         5500.926     3.263090E-6
         5506.991     3.273387E-6
         5513.062     3.283691E-6
         5519.139     3.293999E-6
         5525.221     3.304311E-6
         5531.312     3.314619E-6
          5537.41     3.324884E-6
         5543.514     3.281846E-6
         5549.625     3.198976E-6
         5555.743     3.203083E-6
         5561.868     3.212883E-6
         5567.996     3.222640E-6
         5574.134     3.232409E-6
         5580.279     3.242180E-6
         5586.431     3.251895E-6
          5592.59     3.261616E-6
         5598.755     3.271341E-6
         5604.927     3.277608E-6
         5611.103     3.282999E-6
         5617.289     3.288395E-6
         5623.481     3.293760E-6
         5629.681     3.299100E-6
         5635.887     3.211806E-6
           5642.1     3.152165E-6
         5648.316     3.157248E-6
         5654.543     3.162335E-6
         5660.777     3.167422E-6
         5667.018     3.172509E-6
         5673.265     3.177565E-6
         5679.519     3.182592E-6
          5685.78     3.187622E-6
         5692.045     3.192648E-6
          5698.32     3.197675E-6
         5704.602     3.202704E-6
         5710.891     3.207735E-6
         5717.187     3.212764E-6
         5723.489     3.217792E-6
         5729.799     3.222820E-6
         5736.112     3.227845E-6
         5742.436     3.193481E-6
         5748.766     3.095903E-6
         5755.104     3.080688E-6
         5761.448     3.085463E-6
           5767.8     3.090240E-6
         5774.155     3.094973E-6
         5780.521     3.099692E-6
         5786.893     3.104463E-6
         5793.272     3.109204E-6
         5799.659     3.113915E-6
         5806.053     3.118683E-6
         5812.453     3.123428E-6
         5818.858     3.128132E-6
         5825.272     3.132888E-6
         5831.694     3.137638E-6
         5838.123     3.142341E-6
         5844.559     3.147088E-6
         5851.002     3.151843E-6
         5857.453     3.156538E-6
         5863.907     3.161268E-6
         5870.368     3.159897E-6
         5876.843     3.056585E-6
         5883.321     3.008397E-6
         5889.807     3.012897E-6
           5896.3     3.017397E-6
           5902.8     3.021894E-6
         5909.304     3.026386E-6
         5915.819     3.030931E-6
          5922.34     3.035459E-6
         5928.869     3.039945E-6
         5935.405     3.044478E-6
         5941.945     3.049016E-6
         5948.492     3.053553E-6
         5955.053     3.058090E-6
         5961.618     3.062639E-6
          5968.19     3.067230E-6
         5974.767     3.071771E-6
         5981.356     3.076311E-6
         5987.947     3.080891E-6
         5994.548     3.085469E-6
         6001.157     3.089324E-6
         6007.769     3.089775E-6
         6014.396     3.090262E-6
         6021.022     3.090765E-6
         6027.663     3.091265E-6
         6034.308     3.091759E-6
         6040.954     3.075866E-6
         6047.617     2.961864E-6
          6054.28     2.921404E-6
         6060.958     2.921905E-6
         6067.636     2.922349E-6
         6074.329     2.922829E-6
         6081.021     2.923327E-6
         6087.722     2.923817E-6
         6094.437     2.924306E-6
         6101.152     2.924791E-6
         6107.878     2.925272E-6
         6114.611     2.925747E-6
         6121.355     2.926221E-6
           6128.1     2.926692E-6
         6134.853     2.927157E-6
         6141.616     2.927635E-6
         6148.386     2.928156E-6
         6155.167     2.928626E-6
          6161.95     2.929079E-6
         6168.746     2.929530E-6
          6175.54     2.929977E-6
         6182.348     2.930421E-6
         6189.163     2.930861E-6
         6195.986     2.931298E-6
          6202.82     2.931733E-6
         6209.655     2.932166E-6
         6216.497     2.932537E-6
          6223.35     2.932933E-6
         6230.211     2.933356E-6
         6237.083     2.933714E-6
         6243.955     2.934106E-6
         6250.838     2.934516E-6
         6257.729     2.934869E-6
         6264.624     2.935177E-6
          6271.53     2.935476E-6
         6278.444     2.935818E-6
         6285.366     2.843440E-6
         6292.294     2.763664E-6
         6299.231     2.763923E-6
         6306.176     2.764178E-6
         6313.124     2.764406E-6
         6320.084     2.764601E-6
         6327.051     2.764793E-6
         6334.026     2.764982E-6
         6341.009     2.765159E-6
         6347.999     2.765284E-6
         6354.994     2.765408E-6
            6362.     2.765513E-6
         6369.013     2.765572E-6
         6376.034     2.765631E-6
         6383.063     2.765688E-6
           6390.1     2.765741E-6
         6397.145     2.765732E-6
         6404.193     2.765687E-6
         6411.253     2.765615E-6
         6418.321     2.765543E-6
         6425.397     2.765422E-6
          6432.48     2.765284E-6
         6439.571     2.765142E-6
          6446.67     2.764944E-6
         6453.774     2.764740E-6
         6460.889     2.764520E-6
         6468.011     2.764192E-6
         6475.142     2.763862E-6
          6482.28     2.763528E-6
         6489.426     2.763191E-6
         6496.576     2.762745E-6
         6503.738     2.759783E-6
         6510.908     2.754517E-6
         6518.085     2.749197E-6
         6525.271     2.743830E-6
         6532.465     2.738425E-6
         6539.666     2.732978E-6
         6546.872     2.727535E-6
         6554.089     2.722054E-6
         6561.314     2.716546E-6
         6568.548     2.711038E-6
         6575.789     2.705434E-6
         6583.038     2.699829E-6
         6590.295     2.694254E-6
         6597.557     2.688628E-6
          6604.83     2.682958E-6
         6612.111     2.677249E-6
           6619.4     2.671496E-6
         6626.698     2.665801E-6
         6634.003     2.660045E-6
         6641.316     2.654245E-6
         6648.634     2.648497E-6
         6655.964     2.642652E-6
         6663.301     2.636810E-6
         6670.647     2.630996E-6
         6678.001     2.625130E-6
         6685.363     2.619264E-6
         6692.729     2.613380E-6
         6700.107     2.607455E-6
         6707.494     2.601533E-6
         6714.888     2.595613E-6
         6722.291     2.589692E-6
         6729.701     2.583775E-6
          6737.12     2.577801E-6
         6744.543     2.571830E-6
         6751.979     2.565857E-6
         6759.422     2.559887E-6
         6766.874     2.553863E-6
         6774.333     2.547871E-6
         6781.802     2.541889E-6
         6789.278     2.535865E-6
         6796.759     2.529848E-6
         6804.251     2.523831E-6
         6811.752     2.517814E-6
         6819.262     2.511798E-6
          6826.78     2.505788E-6
         6834.306     2.499780E-6
         6841.836     2.493775E-6
         6849.378     2.487768E-6
         6856.929     2.481765E-6
         6864.488     2.475730E-6
         6872.056     2.469690E-6
         6879.632     2.463696E-6
         6887.216     2.457706E-6
         6894.805     2.451719E-6
         6902.405     2.445713E-6
         6910.015     2.439671E-6
         6917.632     2.433690E-6
         6925.258     2.427712E-6
         6932.893     2.421758E-6
         6940.536     2.415838E-6
         6948.183     2.409872E-6
         6955.839     2.403908E-6
         6963.511     2.397967E-6
         6971.188     2.409823E-6
         6978.873     2.518492E-6
         6986.566     2.529036E-6
         6994.261     2.522781E-6
         7001.975     2.515768E-6
         7009.694     2.506593E-6
         7017.422     2.497378E-6
         7025.158     2.488214E-6
         7032.902     2.479105E-6
         7040.652     2.470050E-6
          7048.41     2.460956E-6
         7056.184     2.451917E-6
         7063.962     2.442907E-6
          7071.75     2.433912E-6
         7079.542     2.424934E-6
          7087.35     2.415966E-6
          7095.16     2.407058E-6
         7102.981     2.398181E-6
         7110.812     2.389316E-6
         7118.647     2.380470E-6
         7126.499     2.371632E-6
         7134.351     2.362849E-6
          7142.22     2.384816E-6
         7150.089     2.482017E-6
         7157.968     2.364508E-6
         7165.863     2.327866E-6
         7173.758     2.370479E-6
         7181.671     2.446485E-6
         7189.584     2.437316E-6
         7197.514     2.428212E-6
         7205.444     2.419132E-6
         7213.384     2.410068E-6
          7221.34     2.401020E-6
         7229.297     2.392046E-6
         7237.271     2.383022E-6
         7245.245     2.374056E-6
         7253.236     2.365116E-6
         7261.228     2.356196E-6
         7269.229     2.347291E-6
         7277.243     2.432547E-6
         7285.265     2.459020E-6
           7293.3     2.449685E-6
         7301.336     2.440410E-6
         7309.381     2.431150E-6
         7317.439     2.421960E-6
         7325.506     2.412746E-6
         7333.586     2.403550E-6
         7341.667     2.394411E-6
         7349.764     2.385279E-6
         7357.863     2.376170E-6
          7365.97     2.441496E-6
          7374.09     2.482177E-6
         7382.219     2.472649E-6
         7390.362     2.463178E-6
         7398.505     2.453734E-6
         7406.661     2.444350E-6
         7414.826     2.434958E-6
         7422.996     2.425583E-6
         7431.184     2.416261E-6
         7439.372     2.407018E-6
         7447.573     2.488516E-6
         7455.783     2.507920E-6
         7464.002     2.498258E-6
         7472.231     2.488610E-6
         7480.464     2.478985E-6
          7488.71     2.469374E-6
         7496.966     2.459832E-6
         7505.231     2.511489E-6
         7513.505     2.557403E-6
         7521.788     2.547680E-6
         7530.076     2.537972E-6
         7538.377     2.528273E-6
         7546.688     2.518581E-6
         7555.007     2.565999E-6
         7563.335     2.612832E-6
         7571.673     2.602731E-6
         7580.021     2.592644E-6
         7588.373     2.582576E-6
         7596.738     2.572513E-6
         7605.113     2.619424E-6
         7613.497     2.663395E-6
          7621.89     2.652929E-6
         7630.292     2.642477E-6
         7638.704     2.632040E-6
         7647.121     2.621620E-6
         7655.551     2.671605E-6
         7663.991     2.709175E-6
         7672.439     2.698358E-6
         7680.897     2.687551E-6
         7689.365     2.676759E-6
         7697.838     2.749571E-6
         7706.324     2.761437E-6
         7714.819     2.750260E-6
         7723.324     2.739099E-6
         7731.838     2.747240E-6
         7740.362     2.821311E-6
         7748.895     2.809772E-6
         7757.434     2.798251E-6
         7765.985     2.848521E-6
         7774.546     2.878040E-6
         7783.117     2.866141E-6
         7791.697     2.871563E-6
         7800.287     2.943912E-6
         7808.886     2.931646E-6
          7817.49     2.919404E-6
         7826.108     2.968412E-6
         7834.736     2.994796E-6
         7843.373     2.982190E-6
          7852.02     2.989596E-6
         7860.676     3.055607E-6
         7869.337     3.042653E-6
         7878.013     3.108026E-6
         7886.697     3.114121E-6
         7895.392     3.100814E-6
         7904.096     3.087533E-6
         7912.809     3.101263E-6
         7921.532     3.156703E-6
         7930.261     3.145571E-6
         7939.003     3.214875E-6
         7947.755     3.210357E-6
         7956.517     3.196413E-6
         7965.288     3.231994E-6
         7974.069     3.261802E-6
          7982.86     3.247533E-6
         7991.656     3.080346E-6
         8000.466     2.367675E-6
         8009.286     3.642532E-6
         8018.115     3.207549E-6
         8026.954     2.879976E-6
         8035.803     3.352189E-6
         8044.658     3.576167E-6
         8053.526     3.613815E-6
         8062.404     4.130740E-6
         8071.292     4.301805E-6
          8080.19     3.812004E-6
         8089.098     3.402966E-6
         8098.016     3.754162E-6
         8106.938     3.889888E-6
         8115.875     3.790679E-6
         8124.822     3.493649E-6
         8133.779     3.285832E-6
         8142.746     3.269824E-6
         8151.723     3.128344E-6
         8160.709     3.205768E-6
         8169.701     4.425332E-6
         8178.708     3.874187E-6
         8187.724     4.012196E-6
          8196.75     3.681045E-6
         8205.786     3.750015E-6
         8214.832     4.035890E-6
         8223.884     4.188866E-6
          8232.95     4.162674E-6
         8242.026     3.823251E-6
         8251.112     3.439713E-6
         8260.208     3.498122E-6
         8269.314     4.157385E-6
         8278.431     3.549412E-6
         8287.552     4.022701E-6
         8296.688     4.092965E-6
         8305.835     3.971961E-6
         8314.991     3.948614E-6
         8324.153     3.805987E-6
         8333.334     3.568902E-6
         8342.521     3.738608E-6
         8351.713     4.196109E-6
          8360.92     3.712234E-6
         8370.138     3.641589E-6
         8379.365     3.888126E-6
         8388.603     3.714546E-6
          8397.85     4.000582E-6
         8407.104     4.568236E-6
         8416.371     4.533965E-6
         8425.649     3.929397E-6
         8434.934     3.897093E-6
         8444.236     4.258948E-6
         8453.546     4.067070E-6
         8462.865     3.718058E-6
         8472.189     3.909219E-6
         8481.525     4.054803E-6
          8490.88     3.821428E-6
          8500.24     4.475369E-6
         8509.611     4.333360E-6
         8518.987     3.894064E-6
         8528.384     3.998040E-6
          8537.78     4.577164E-6
         8547.188     4.388967E-6
         8556.615     4.285680E-6
         8566.043     3.897149E-6
         8575.486     3.482635E-6
          8584.94     3.860947E-6
         8594.409     4.250662E-6
         8603.879     3.890998E-6
         8613.359     3.583713E-6
         8622.854     3.736304E-6
          8632.36     4.034737E-6
         8641.882     3.898156E-6
         8651.403     3.469332E-6
         8660.937     4.034388E-6
         8670.484     3.970408E-6
         8680.043     4.187466E-6
         8689.611     4.752169E-6
         8699.191     4.527553E-6
         8708.781     3.845902E-6
         8718.382     3.585971E-6
         8727.988     4.016819E-6
          8737.61     3.525136E-6
         8747.242     4.094896E-6
         8756.886     4.080797E-6
         8766.539     3.623263E-6
         8776.203     3.658351E-6
         8785.879     3.599026E-6
          8795.56     3.779877E-6
         8805.256     3.982031E-6
         8814.963     3.902999E-6
         8824.681     3.718377E-6
         8834.408     3.694809E-6
         8844.147     3.813186E-6
         8853.893     3.724193E-6
         8863.653     3.801387E-6
         8873.425     3.894634E-6
         8883.207     3.621776E-6
            8893.     3.433461E-6
         8902.804     3.681482E-6
         8912.618     3.439656E-6
         8922.438     3.166594E-6
         8932.274     3.558707E-6
         8942.122     3.430435E-6
         8951.979     3.282696E-6
         8961.849     3.073751E-6
         8971.728     3.046620E-6
         8981.618     3.434040E-6
         8991.515     3.499907E-6
         9001.427     3.062677E-6
         9011.351     3.070734E-6
         9021.284     2.719094E-6
         9031.229     2.860878E-6
         9041.186     3.413275E-6
         9051.147     3.483435E-6
         9061.126     2.938729E-6
         9071.115     3.197506E-6
         9081.115     3.404629E-6
         9091.126     3.199369E-6
         9101.148     2.747074E-6
         9111.182     2.623225E-6
         9121.221     2.792453E-6
         9131.276     2.980312E-6
         9141.343     2.797854E-6
          9151.42     2.759156E-6
         9161.509     2.684430E-6
         9171.608     2.798128E-6
         9181.719     2.712774E-6
         9191.836     2.635000E-6
          9201.97     2.789874E-6
         9212.113     2.589481E-6
          9222.27     2.611938E-6
         9232.436     2.096883E-6
         9242.613     2.313759E-6
         9252.798     2.046538E-6
         9262.998     2.138655E-6
          9273.21     2.249759E-6
         9283.433     2.210176E-6
         9293.667     2.200554E-6
         9303.912     2.200962E-6
         9314.169     2.137037E-6
         9324.432     2.185003E-6
         9334.711     2.146166E-6
         9345.002     2.115044E-6
         9355.304     2.213870E-6
         9365.617     2.171076E-6
         9375.941     1.979871E-6
         9386.278     1.989273E-6
          9396.62     1.956521E-6
         9406.979     1.849085E-6
          9417.35     1.778308E-6
         9427.731     1.669235E-6
         9438.124     1.824678E-6
         9448.529     1.763117E-6
          9458.94     1.694100E-6
         9469.368     1.495861E-6
         9479.807     1.545210E-6
         9490.258     1.825834E-6
          9500.72     1.440954E-6
         9511.193     1.467719E-6
         9521.679     1.449049E-6
          9532.17     1.520427E-6
         9542.679     1.372904E-6
         9553.198     1.383600E-6
         9563.729     1.337892E-6
         9574.272     1.331402E-6
         9584.828     1.350833E-6
         9595.395     1.403604E-6
         9605.967     1.254206E-6
         9616.557     1.388666E-6
         9627.158     1.185438E-6
         9637.771     1.101035E-6
         9648.396     1.208890E-6
         9659.032     1.207938E-6
         9669.681     1.331558E-6
         9680.335     1.242031E-6
         9691.007     1.059880E-6
          9701.69     1.047129E-6
         9712.386     1.019398E-6
         9723.093     1.090281E-6
         9733.812     9.534479E-7
         9744.536     9.241302E-7
         9755.279     9.534345E-7
         9766.033     9.273742E-7
           9776.8     9.042031E-7
         9787.577     8.238595E-7
         9798.367     7.840550E-7
         9809.169     8.844085E-7
         9819.978     9.522216E-7
         9830.803     6.485370E-7
         9841.641     6.500055E-7
          9852.49     7.446984E-7
         9863.352     6.281987E-7
         9874.225     6.292748E-7
          9885.11     5.877015E-7
         9896.003     6.045507E-7
         9906.912     6.413836E-7
         9917.828     5.460873E-7
         9928.767     5.525404E-7
         9939.713     5.192561E-7
          9950.67     4.915511E-7
         9961.634     4.998984E-7
          9972.61     4.891518E-7
          9983.61     4.194587E-7
         9994.616     3.857399E-7
         10005.63     3.849761E-7
         10016.66     3.992699E-7
         10027.71     4.369934E-7
         10038.76     3.566660E-7
         10049.82     3.854014E-7
          10060.9     3.166080E-7
         10071.99     3.612816E-7
          10083.1     3.351835E-7
         10094.21     3.247052E-7
         10105.34     3.421311E-7
         10116.47     3.573903E-7
         10127.62     3.023944E-7
         10138.79     3.275338E-7
         10149.96     2.978903E-7
         10161.16     2.141612E-7
         10172.35     2.580541E-7
         10183.56     2.593944E-7
         10194.79     2.834761E-7
         10206.03     2.274817E-7
         10217.29     1.977490E-7
         10228.54     2.324365E-7
         10239.83     2.157366E-7
         10251.11     1.888969E-7
          10262.4     1.865514E-7
         10273.72     1.790308E-7
         10285.04     1.726010E-7
         10296.39     1.608908E-7
         10307.73     1.540893E-7
          10319.1     1.453112E-7
         10330.47     1.317954E-7
         10341.85     1.371464E-7
         10353.26     1.366548E-7
         10364.67     1.293063E-7
          10376.1     1.197391E-7
         10387.53     1.189809E-7
         10398.99     9.500565E-8
         10410.45     8.556338E-8
         10421.92     9.117446E-8
         10433.41     7.935341E-8
         10444.91     6.065305E-8
         10456.43     6.118630E-8
         10467.95     5.927831E-8
          10479.5     5.147914E-8
         10491.04     4.657148E-8
          10502.6     3.497358E-8
         10514.19     3.906806E-8
         10525.77     4.363546E-8
         10537.38     3.923643E-8
         10548.99     4.112102E-8
         10560.63     3.208275E-8
         10572.26     4.118508E-8
         10583.91     3.742175E-8
         10595.59     2.737116E-8
         10607.26     2.913970E-8
         10618.96     3.482408E-8
         10630.66     3.525466E-8
         10642.38     2.806862E-8
         10654.11     2.882380E-8
         10665.85     2.134589E-8
         10677.62     2.709992E-8
         10689.38     2.552811E-8
         10701.17     2.817093E-8
         10712.96     2.487815E-8
         10724.77     2.322735E-8
          10736.6     2.061293E-8
         10748.43     2.054432E-8
         10760.27     2.072151E-8
         10772.14     2.295810E-8
         10784.01     1.689384E-8
          10795.9     1.726870E-8
         10807.81     1.722725E-8
         10819.72     1.348220E-8
         10831.65     1.405253E-8
         10843.57     1.326164E-8
         10855.53     1.309603E-8
         10867.51     1.360337E-8
         10879.48     1.199316E-8
         10891.48     1.018128E-8
         10903.48     9.541658E-9
          10915.5     8.844887E-9
         10927.52     8.781281E-9
         10939.58     8.663961E-9
         10951.64     6.226967E-9
         10963.71     5.242929E-9
         10975.79     5.909271E-9
         10987.88     6.518202E-9
           11000.     5.571664E-9
