#  Table wf3f850lpsys.tab  Mon 12:22:24 02-Jun-97

#      WAVELENGTH      THROUGHPUT
#       angstroms                

            7900.              0.
          7901.31     1.043242E-6
         7902.616     2.082009E-6
         7903.926     3.122560E-6
         7905.237     4.162153E-6
         7906.543     5.197302E-6
         7907.854     6.234187E-6
         7909.166     7.270517E-6
         7910.472     8.301648E-6
         7911.784     9.335663E-6
         7913.096     1.036797E-5
         7914.403     1.139584E-5
         7915.716     1.242623E-5
         7917.028     1.345527E-5
         7918.336     1.447951E-5
         7919.649     1.550626E-5
         7920.958     1.652822E-5
         7922.271     1.755267E-5
         7923.585     1.857578E-5
         7924.895     1.959450E-5
         7926.208     2.061531E-5
         7927.523     2.163514E-5
         7928.833     2.265025E-5
         7930.147     2.366740E-5
         7931.462     2.468364E-5
         7932.773     2.569512E-5
         7934.088     2.670906E-5
         7935.404     2.772164E-5
         7936.711     2.872652E-5
         7938.031     2.974019E-5
         7939.347     3.074915E-5
         7940.659     3.175378E-5
         7941.976     3.276085E-5
         7943.289     3.376321E-5
         7944.605     3.476761E-5
         7945.923     3.577103E-5
          7947.24     3.677312E-5
         7948.554     3.777093E-5
         7949.867     3.876738E-5
         7951.189     3.976920E-5
         7952.503     4.076343E-5
         7953.822     4.176000E-5
         7955.137     4.275195E-5
         7956.451     4.374254E-5
         7957.775     4.473880E-5
          7959.09     4.572713E-5
          7960.41     4.671780E-5
         7961.729     4.770717E-5
         7963.041     4.868901E-5
         7964.365     4.967901E-5
         7965.686     5.066512E-5
         7967.002     5.164665E-5
         7968.323     5.263010E-5
          7969.64     5.360932E-5
         7970.961     5.459052E-5
         7972.283     5.557076E-5
         7973.605     5.654969E-5
         7974.923     5.752439E-5
         7976.241     5.849778E-5
         7977.567     5.947632E-5
         7978.886     6.044743E-5
         7980.209     6.142083E-5
         7981.532     6.239258E-5
         7982.847     6.335730E-5
          7984.17     6.432713E-5
         7985.499     6.529887E-5
         7986.818     6.626287E-5
         7988.142     6.722909E-5
         7989.458     6.818795E-5
         7990.783     6.915192E-5
         7992.112     7.011781E-5
         7993.433     7.107634E-5
         7994.758     7.203710E-5
         7996.079     7.299301E-5
         7997.401     7.394829E-5
         7998.731     7.490826E-5
         8000.057     7.586318E-5
         8001.379     7.679356E-5
         8002.702     7.772211E-5
         8004.029     7.865219E-5
         8005.355     7.958009E-5
         8006.683     8.050680E-5
         8008.011     8.143164E-5
          8009.33     8.234850E-5
         8010.658     8.326999E-5
          8011.99     8.419266E-5
         8013.314     8.510740E-5
         8014.643     8.602366E-5
         8015.967     8.693533E-5
         8017.292     8.784519E-5
         8018.625     8.875921E-5
         8019.955     8.966868E-5
         8021.276     9.057069E-5
         8022.606     9.147650E-5
         8023.937     9.238112E-5
         8025.267     9.328354E-5
         8026.597     9.418443E-5
         8027.919     9.507788E-5
          8029.25     9.597543E-5
         8030.582     9.687112E-5
         8031.913     9.776530E-5
         8033.245     9.865794E-5
         8034.573     9.954582E-5
           8035.9     1.004318E-4
         8037.233     1.013193E-4
          8038.57     1.022078E-4
         8039.898     1.030886E-4
         8041.227     1.039682E-4
          8042.56     1.048486E-4
         8043.889     1.057246E-4
         8045.228     1.066049E-4
         8046.561     1.074800E-4
         8047.887     1.083482E-4
         8049.221     1.092204E-4
         8050.556     1.100907E-4
         8051.891     1.109595E-4
         8053.226     1.118264E-4
         8054.556     1.126887E-4
         8055.887     1.135494E-4
         8057.223     1.144115E-4
         8058.563     1.152745E-4
         8059.895     1.161300E-4
         8061.227     1.169841E-4
         8062.563     1.178392E-4
         8063.896     1.186899E-4
         8065.238     1.195447E-4
         8066.575     1.203945E-4
         8067.903     1.212373E-4
         8069.241     1.220840E-4
         8070.579     1.229290E-4
         8071.913     1.237694E-4
         8073.255     1.246138E-4
         8074.585     1.254484E-4
         8075.924     1.262867E-4
         8077.263     1.271231E-4
         8078.598     1.279553E-4
         8079.942     1.287911E-4
         8081.277     1.296200E-4
         8082.613     1.304471E-4
         8083.953     1.312750E-4
         8085.293     1.321014E-4
         8086.634     1.329263E-4
          8087.97     1.337467E-4
         8089.311     1.345679E-4
         8090.648     1.353849E-4
         8091.989     1.362028E-4
         8093.331     1.370192E-4
         8094.668     1.378311E-4
         8096.011     1.386442E-4
         8097.353     1.394554E-4
         8098.691     1.402624E-4
         8100.034     1.410703E-4
         8101.377     1.418764E-4
         8102.716     1.426783E-4
          8104.06     1.434814E-4
         8105.398     1.442797E-4
         8106.743     1.450793E-4
         8108.086     1.458769E-4
         8109.431     1.466732E-4
         8110.771     1.474649E-4
         8112.116     1.482577E-4
         8113.457     1.490463E-4
         8114.802     1.498357E-4
         8116.147     1.506236E-4
         8117.488     1.514068E-4
         8118.834     1.521914E-4
         8120.181     1.529741E-4
         8121.522     1.537525E-4
         8122.869     1.545319E-4
         8124.216     1.553095E-4
         8125.559     1.560831E-4
         8126.906     1.568574E-4
         8128.253     1.576301E-4
         8129.597     1.583985E-4
         8130.944     1.591677E-4
         8132.292     1.599354E-4
         8133.636     1.606987E-4
         8134.985     1.614630E-4
          8136.33     1.622233E-4
         8137.679     1.629843E-4
         8139.028     1.637435E-4
         8140.377     1.645011E-4
         8141.723     1.652546E-4
         8143.072     1.660087E-4
         8144.418     1.667588E-4
         8145.769     1.675098E-4
         8147.119     1.682591E-4
         8148.465     1.690041E-4
         8149.816     1.697500E-4
         8151.168     1.704944E-4
         8152.515     1.712344E-4
         8153.867     1.719754E-4
         8155.219     1.727148E-4
         8156.566     1.734499E-4
         8157.918     1.741856E-4
         8159.271     1.749200E-4
          8160.62     1.756500E-4
         8161.973     1.763809E-4
         8163.326     1.771103E-4
         8164.675     1.778355E-4
         8166.029     1.785614E-4
         8167.378     1.792833E-4
         8168.732     1.800057E-4
         8170.087     1.807267E-4
         8171.441     1.814459E-4
         8172.792     1.821613E-4
         8174.147     1.828772E-4
         8175.498     1.835893E-4
         8176.854     1.843019E-4
         8178.209     1.850127E-4
         8179.565     1.857219E-4
         8180.917     1.864274E-4
         8182.273     1.871334E-4
         8183.625     1.878354E-4
         8184.982     1.885381E-4
         8186.339     1.892391E-4
         8187.697     1.899384E-4
          8189.05     1.906338E-4
         8190.408     1.913298E-4
         8191.761     1.920220E-4
         8193.119     1.927146E-4
         8194.478     1.934056E-4
         8195.827     1.940904E-4
         8197.191     1.947809E-4
          8198.55     1.954666E-4
         8199.905     1.961491E-4
         8201.265     1.968319E-4
          8202.62     1.975108E-4
         8203.979     1.981900E-4
          8205.34     1.988679E-4
         8206.701     1.995446E-4
         8208.057     2.002165E-4
         8209.413     2.008871E-4
         8210.779     2.015609E-4
         8212.136     2.022281E-4
         8213.497     2.028959E-4
         8214.859     2.035625E-4
         8216.213     2.042229E-4
         8217.575     2.048860E-4
         8218.941     2.055490E-4
           8220.3     2.062066E-4
         8221.663     2.068649E-4
         8223.018     2.075171E-4
         8224.381     2.081719E-4
         8225.749     2.088272E-4
         8227.112     2.094783E-4
         8228.472     2.101259E-4
         8229.832     2.107721E-4
         8231.196     2.114186E-4
         8232.562     2.120637E-4
         8233.927     2.127071E-4
         8235.292     2.133488E-4
         8236.647     2.139841E-4
         8238.014     2.146227E-4
          8239.38     2.152594E-4
         8240.746     2.158946E-4
         8242.112     2.165279E-4
          8243.47     2.171555E-4
         8244.836     2.177853E-4
         8246.203     2.184139E-4
          8247.57     2.190407E-4
         8248.938     2.196662E-4
         8250.297     2.202855E-4
         8251.665     2.209076E-4
         8253.037     2.215297E-4
         8254.401     2.221465E-4
          8255.77     2.227633E-4
         8257.135     2.233770E-4
         8258.499     2.239887E-4
         8259.873     2.246028E-4
         8261.242     2.252132E-4
         8262.607     2.258201E-4
         8263.973     2.264252E-4
         8265.343     2.270308E-4
         8266.718     2.276367E-4
         8268.084     2.282370E-4
          8269.45     2.288357E-4
         8270.817     2.294330E-4
         8272.188     2.300305E-4
         8273.564     2.306282E-4
         8274.932     2.312204E-4
           8276.3     2.318113E-4
         8277.672     2.324021E-4
         8279.044     2.329912E-4
         8280.417     2.335790E-4
          8281.79     2.341651E-4
         8283.153     2.347453E-4
         8284.527     2.353284E-4
           8285.9     2.359093E-4
         8287.274     2.364890E-4
         8288.648     2.370668E-4
         8290.014     2.376392E-4
         8291.389     2.382141E-4
         8292.764     2.387873E-4
         8294.139     2.393587E-4
         8295.514     2.399284E-4
         8296.885     2.404948E-4
         8298.256     2.410594E-4
         8299.631     2.416239E-4
         8301.012     2.421892E-4
         8302.384     2.427492E-4
         8303.756     2.433075E-4
         8305.133     2.438659E-4
         8306.505     2.444208E-4
         8307.887     2.449778E-4
         8309.265     2.455316E-4
         8310.638     2.700018E-4
         8312.011     3.219699E-4
         8313.389     3.740059E-4
         8314.768     4.259619E-4
         8316.146     4.778010E-4
         8317.521     5.293401E-4
         8318.895     5.807632E-4
         8320.274     6.328251E-4
         8321.658     6.870792E-4
         8323.029     7.407136E-4
         8324.409     7.945697E-4
         8325.789     8.483031E-4
         8327.165     9.017624E-4
         8328.551     9.554781E-4
         8329.927     0.001008693
         8331.304     0.001077457
         8332.685     0.001147138
         8334.066     0.001216709
         8335.443     0.001285875
         8336.825     0.001355127
         8338.203     0.001424025
         8339.586     0.001493007
         8340.969     0.001564929
         8342.352     0.001638008
          8343.73     0.001710713
         8345.113     0.001783453
         8346.493     0.001855872
         8347.877     0.001928326
         8349.261     0.002000612
         8350.646     0.002081952
         8352.025     0.002173369
         8353.405     0.002264704
          8354.79      0.00235628
         8356.176     0.002447837
         8357.562     0.002539312
         8358.942     0.002630382
         8360.328      0.00272256
         8361.715     0.002817521
         8363.097     0.002912061
         8364.483     0.003006849
          8365.87     0.003101549
         8367.252     0.003195829
          8368.64     0.003290421
         8370.022     0.003385008
          8371.41     0.003505032
         8372.799      0.00362503
         8374.187     0.003744831
          8375.57     0.003864184
         8376.959     0.003983846
         8378.344     0.004103061
         8379.732       0.0042225
         8381.122     0.004338294
         8382.512     0.004453117
         8383.897      0.00456751
         8385.287     0.004682116
         8386.673     0.004796289
         8388.063     0.004910756
         8389.454     0.005025112
         8390.841     0.005159023
         8392.231     0.005306185
         8393.623      0.00545331
         8395.011     0.005599882
         8396.402     0.005746725
         8397.795     0.005893528
         8399.188     0.006040189
         8400.575     0.006184368
         8401.963     0.006325831
         8403.356     0.006467752
          8404.75     0.006609533
         8406.144     0.006751174
         8407.532     0.006892181
         8408.927     0.007033641
         8410.316     0.007178844
         8411.711     0.007339309
         8413.105     0.007499614
           8414.5     0.007659759
         8415.891     0.007819297
         8417.286     0.007979231
         8418.677     0.008138451
         8420.073     0.008298531
         8421.469     0.008464733
          8422.86     0.008630306
         8424.258     0.008796403
         8425.654     0.008962217
         8427.047     0.009127395
         8428.443     0.009292871
         8429.841     0.009458291
         8431.239      0.00963677
         8432.632     0.009815996
          8434.03     0.009995791
         8435.424      0.01017477
         8436.823      0.01035432
         8438.222      0.01053356
         8439.616       0.0107121
         8441.016       0.0108912
          8442.41      0.01106953
         8443.811      0.01124842
          8445.21      0.01142699
          8446.61      0.01160551
         8448.007      0.01178333
         8449.407      0.01196146
         8450.804      0.01215164
         8452.205       0.0123517
         8453.606      0.01255156
         8455.008      0.01275119
         8456.405      0.01295006
         8457.803      0.01314871
         8459.205      0.01334784
         8460.607      0.01354137
          8462.01      0.01372762
         8463.404      0.01391264
         8464.808      0.01409862
         8466.216      0.01428504
         8467.614      0.01446996
         8469.019      0.01465545
         8470.418      0.01484613
         8471.817      0.01505074
         8473.228      0.01525669
         8474.627      0.01546084
         8476.032      0.01566562
         8477.434      0.01586961
         8478.839      0.01607393
         8480.245      0.01627625
          8481.65       0.0164691
         8483.057      0.01666188
         8484.454      0.01685323
         8485.861      0.01704569
         8487.272      0.01723847
         8488.676      0.01742996
         8490.083      0.01762273
         8491.485      0.01782991
         8492.889        0.018037
         8494.302      0.01824529
          8495.71      0.01845262
         8497.114      0.01865914
         8498.519      0.01886541
         8499.928      0.01907216
         8501.337      0.01926119
         8502.746      0.01944903
         8504.156      0.01963676
         8505.557      0.01982294
         8506.967      0.02001018
         8508.378      0.02019732
         8509.788      0.02038407
         8511.199      0.02058631
         8512.602      0.02078978
         8514.013      0.02099426
         8515.429      0.02119918
         8516.836      0.02140254
         8518.244       0.0216058
         8519.651      0.02180863
         8521.064      0.02199687
         8522.481      0.02218041
          8523.89      0.02236256
         8525.299      0.02254459
         8526.712      0.02272688
         8528.126      0.02290904
          8529.54      0.02309096
         8530.954      0.02327776
         8532.364      0.02346627
         8533.774      0.02365452
         8535.188      0.02384302
         8536.608      0.02403205
          8538.02      0.02421965
         8539.431      0.02440698
         8540.842      0.02458189
         8542.258      0.02474892
         8543.679      0.02491628
         8545.091      0.02508236
         8546.503      0.02524822
          8547.92       0.0254144
         8549.337      0.02558034
         8550.755      0.02575191
         8552.173      0.02592827
         8553.581      0.02610318
         8554.999      0.02627903
         8556.418      0.02645476
         8557.837      0.02663023
         8559.256      0.02680543
          8560.67      0.02697121
         8562.085      0.02712733
         8563.504      0.02728366
         8564.924      0.02743985
         8566.345      0.02759591
          8567.76      0.02775109
         8569.176      0.02790615
         8570.597       0.0280615
         8572.022      0.02821715
         8573.438       0.0283715
         8574.855      0.02852571
         8576.277      0.02868022
         8577.694      0.02883396
         8579.122      0.02898861
         8580.539      0.02913303
         8581.957      0.02926294
         8583.381      0.02939317
         8584.804      0.02952311
         8586.231      0.02965327
         8587.646      0.02978198
         8589.069      0.02991136
         8590.494      0.03004421
         8591.913      0.03018304
         8593.343      0.03032268
         8594.758      0.03046067
         8596.184      0.03059948
         8597.608      0.03073796
         8599.034      0.03087631
          8600.46      0.03100839
         8601.876      0.03112675
         8603.303      0.03124581
         8604.729      0.03136465
         8606.156      0.03148329
         8607.583      0.03160173
         8609.005      0.03171955
         8610.428      0.03183927
         8611.855      0.03196392
         8613.283      0.03208835
         8614.712      0.03221265
         8616.136       0.0323363
         8617.563      0.03246008
         8618.988      0.03258338
         8620.417      0.03270231
         8621.847      0.03281023
         8623.276      0.03291795
         8624.701       0.0330251
         8626.126      0.03313204
         8627.557      0.03323923
         8628.992      0.03334657
         8630.418      0.03345347
         8631.849      0.03356166
         8633.275      0.03366936
         8634.702      0.03377685
         8636.134      0.03388449
         8637.565      0.03399194
         8638.998      0.03409925
         8640.426      0.03419894
         8641.858      0.03428217
         8643.291      0.03436521
         8644.719      0.03444781
         8646.152      0.03453056
         8647.586      0.03461314
         8649.016      0.03469532
         8650.449      0.03478082
         8651.879      0.03487306
         8653.313       0.0349654
         8654.748      0.03505756
         8656.183      0.03514951
         8657.618      0.03524132
         8659.044      0.03533233
         8660.479      0.03541778
         8661.916      0.03549118
         8663.353      0.03556441
         8664.788      0.03563743
         8666.221      0.03571012
         8667.652      0.03578258
          8669.09      0.03585517
         8670.527      0.03592754
         8671.965      0.03599964
         8673.397      0.03607133
         8674.836      0.03614314
          8676.27      0.03621453
         8677.708      0.03628599
         8679.146      0.03635726
         8680.586      0.03642682
         8682.021      0.03649364
         8683.455      0.03656029
         8684.895      0.03662699
         8686.335      0.03669358
         8687.775      0.03675998
         8689.216      0.03682623
         8690.646      0.03688884
         8692.088       0.0369481
         8693.529      0.03700718
         8694.971      0.03706611
         8696.412      0.03712487
         8697.845      0.03718312
         8699.291      0.03724176
         8700.733      0.03729935
         8702.172      0.03735594
         8703.614      0.03741253
         8705.053      0.03746879
         8706.496      0.03752508
         8707.939      0.03758121
         8709.384      0.03763723
         8710.823        0.037687
         8712.263      0.03773224
         8713.712      0.03777763
         8715.156      0.03782271
         8716.597      0.03786753
         8718.037       0.0379122
         8719.482      0.03795689
         8720.929      0.03799918
         8722.374      0.03804005
          8723.82      0.03808082
         8725.263      0.03812132
         8726.704      0.03816166
         8728.151      0.03820201
         8729.599      0.03824223
         8731.046        0.038282
         8732.488      0.03832138
         8733.932      0.03836063
          8735.38      0.03839989
         8736.828      0.03843899
         8738.276      0.03847795
         8739.726       0.0385168
         8741.165      0.03854414
         8742.619        0.038569
         8744.064      0.03859359
         8745.514      0.03861812
         8746.964      0.03864254
         8748.404      0.03866668
          8749.86      0.03869096
         8751.306      0.03872543
         8752.757      0.03876103
         8754.208      0.03879649
          8755.65      0.03883158
         8757.111      0.03886699
         8758.559      0.03890192
         8760.006      0.03893665
         8761.459      0.03895804
         8762.906      0.03897921
         8764.364      0.03900043
         8765.813      0.03902137
         8767.266      0.03904226
         8768.715      0.03906299
         8770.164      0.03908281
         8771.623      0.03909653
         8773.077      0.03911009
         8774.527      0.03912351
         8775.977       0.0391368
         8777.433      0.03915004
         8778.888      0.03916317
         8780.343      0.03917671
         8781.789      0.03919171
         8783.245      0.03920669
         8784.701      0.03922157
         8786.158      0.03923633
         8787.615      0.03925098
         8789.063      0.03926542
          8790.52      0.03927965
         8791.978      0.03929342
         8793.435      0.03930706
         8794.893      0.03932059
         8796.347      0.03933399
         8797.805      0.03934728
         8799.259      0.03936043
         8800.723      0.03936906
         8802.177      0.03937295
         8803.632      0.03937673
         8805.091      0.03938042
         8806.546        0.039384
         8808.012      0.03938751
         8809.467      0.03939089
         8810.928      0.03939145
         8812.389      0.03939033
          8813.84      0.03938914
         8815.311      0.03938782
         8816.763      0.03938643
         8818.225      0.03938494
         8819.687      0.03938336
         8821.145      0.03937685
         8822.612      0.03936889
         8824.065      0.03936092
         8825.528      0.03935282
         8826.991      0.03934463
         8828.455      0.03933635
         8829.919      0.03932798
         8831.378      0.03933175
         8832.837      0.03933613
         8834.302      0.03934041
         8835.767      0.03934459
         8837.231      0.03934866
         8838.692      0.03935261
         8840.152       0.0393551
         8841.618      0.03934598
         8843.085      0.03933677
         8844.551      0.03932748
         8846.018      0.03931808
         8847.475      0.03930868
         8848.941      0.03929911
         8850.408      0.03928693
         8851.876       0.0392681
         8853.344      0.03924918
         8854.807      0.03923027
         8856.274      0.03921122
         8857.738      0.03919216
         8859.212      0.03917289
         8860.676      0.03915931
         8862.146      0.03915217
         8863.609      0.03914498
         8865.079      0.03913764
         8866.549      0.03913023
         8868.015      0.03912274
         8869.484      0.03911514
         8870.955      0.03910337
         8872.421      0.03908937
         8873.897      0.03907518
         8875.358      0.03906105
          8876.83      0.03904676
         8878.302      0.03903236
         8879.774       0.0390179
         8881.247      0.03900741
         8882.709      0.03899764
         8884.183       0.0389877
         8885.655      0.03897767
         8887.129      0.03896756
         8888.603      0.03895735
         8890.071      0.03894648
          8891.54      0.03892377
         8893.015      0.03890089
         8894.489      0.03887796
         8895.964      0.03885496
         8897.434      0.03883195
         8898.909       0.0388088
          8900.38       0.0387891
         8901.855      0.03877916
         8903.331      0.03876913
         8904.808      0.03875899
         8906.279       0.0387488
         8907.751      0.03873851
         8909.228       0.0387281
         8910.705      0.03871074
         8912.183      0.03868584
          8913.66      0.03866087
         8915.133      0.03863591
         8916.606      0.03861088
         8918.085       0.0385857
         8919.563      0.03856045
         8921.043      0.03853547
         8922.517      0.03851068
         8923.996      0.03848572
         8925.476      0.03846069
         8926.951      0.03843566
         8928.431      0.03841051
         8929.906      0.03838534
         8931.387      0.03836298
         8932.868      0.03834074
         8934.344       0.0383185
         8935.825       0.0382961
         8937.303       0.0382737
         8938.789      0.03825107
         8940.271      0.03822682
         8941.743      0.03819557
         8943.227        0.038164
         8944.709       0.0381324
         8946.192      0.03810073
         8947.676      0.03806899
         8949.154      0.03803732
         8950.633      0.03800685
         8952.117       0.0379779
         8953.602       0.0379489
         8955.086      0.03791983
         8956.565       0.0378908
         8958.051      0.03786159
         8959.531       0.0378324
         8961.017      0.03780696
         8962.503      0.03778322
         8963.988      0.03775943
          8965.47      0.03773562
         8966.951      0.03771173
         8968.438      0.03768767
         8969.926      0.03766354
         8971.413      0.03762132
           8972.9      0.03757813
         8974.378      0.03753519
         8975.866      0.03749191
         8977.354      0.03744859
         8978.843      0.03740523
         8980.331      0.03736677
         8981.811      0.03734557
         8983.305      0.03732407
         8984.794      0.03730256
         8986.279      0.03728102
          8987.77      0.03725932
         8989.254      0.03723762
         8990.745        0.037209
         8992.235       0.0371736
         8993.727      0.03713811
         8995.213       0.0371027
         8996.699      0.03706722
         8998.196      0.03703143
         8999.688      0.03699574
         9001.175      0.03695275
         9002.663      0.03690777
         9004.155      0.03686263
         9005.648      0.03681746
         9007.142      0.03677224
         9008.635        0.036727
         9010.119      0.03668368
         9011.612      0.03665933
         9013.106      0.03663488
         9014.602      0.03661035
         9016.096      0.03658576
         9017.586      0.03656115
         9019.076      0.03653647
         9020.571      0.03650964
         9022.067      0.03647948
         9023.563      0.03644926
         9025.055      0.03641908
         9026.546      0.03638884
         9028.047      0.03635832
         9029.539      0.03632793
         9031.036      0.03629223
         9032.528       0.0362543
         9034.021       0.0362163
         9035.524      0.03617801
         9037.018      0.03613992
         9038.516      0.03610167
          9040.01      0.03606349
         9041.504      0.03603039
         9043.013       0.0359969
         9044.507      0.03596368
         9046.002      0.03593037
         9047.502       0.0358969
         9048.997      0.03586348
         9050.502      0.03582904
         9051.998      0.03579328
         9053.493      0.03575749
         9054.995      0.03572148
         9056.491      0.03568555
         9057.998      0.03564932
           9059.5      0.03561315
         9060.991      0.03556984
         9062.494      0.03552245
         9063.997      0.03547503
           9065.5      0.03542758
         9066.998      0.03538026
         9068.496      0.03533292
            9070.      0.03528536
         9071.504      0.03525133
         9073.008      0.03521723
         9074.512      0.03518308
         9076.007      0.03514906
         9077.512      0.03511477
         9079.017      0.03508041
         9080.521      0.03504382
         9082.027      0.03500305
         9083.528      0.03496236
         9085.034      0.03492151
         9086.536      0.03488072
         9088.048       0.0348396
         9089.549      0.03479874
         9091.052      0.03475787
         9092.559      0.03471687
         9094.062      0.03467594
         9095.574      0.03463469
         9097.077      0.03459367
         9098.586      0.03455244
         9100.094      0.03451152
         9101.598      0.03447582
         9103.112       0.0344398
         9104.611      0.03440409
         9106.121      0.03436806
         9107.631      0.03433198
         9109.141      0.03429583
         9110.651      0.03425518
         9112.152      0.03420895
         9113.663      0.03416239
         9115.174      0.03411578
         9116.686      0.03406912
         9118.197      0.03402244
         9119.704      0.03397585
         9121.211      0.03393367
         9122.723      0.03389239
         9124.235      0.03385103
         9125.749      0.03380961
         9127.257      0.03376828
         9128.765      0.03372692
         9130.278      0.03368552
         9131.792      0.03364489
         9133.307      0.03360417
         9134.821      0.03356341
          9136.33      0.03352275
          9137.84      0.03348202
         9139.355      0.03344107
         9140.871      0.03339501
         9142.387      0.03334516
         9143.902      0.03329529
         9145.413      0.03324554
         9146.925      0.03319575
         9148.446      0.03314561
         9149.958      0.03309575
         9151.476      0.03306016
         9152.987      0.03302505
         9154.505      0.03298972
         9156.023      0.03295431
         9157.536      0.03291897
         9159.055      0.03288342
         9160.573      0.03284113
         9162.087      0.03278799
         9163.611      0.03273444
          9165.12      0.03268143
          9166.64      0.03262803
          9168.16      0.03257456
          9169.68      0.03252112
         9171.195      0.03247814
         9172.711      0.03243788
         9174.231      0.03239743
         9175.753      0.03235689
         9177.274       0.0323163
         9178.796      0.03227565
         9180.313      0.03223354
          9181.83      0.03218544
         9183.353      0.03213716
         9184.875      0.03208883
         9186.398      0.03204044
         9187.916      0.03199219
         9189.439      0.03194373
         9190.958      0.03189867
         9192.482      0.03185531
         9194.006      0.03181193
          9195.53      0.03176846
          9197.05      0.03172508
          9198.57      0.03168162
         9200.096      0.03163773
         9201.621         0.03159
         9203.146      0.03154224
         9204.672      0.03149443
         9206.188      0.03144687
         9207.715      0.03139896
         9209.241      0.03135101
         9210.769      0.03130526
         9212.296       0.0312617
         9213.813      0.03121839
         9215.346      0.03117456
         9216.868      0.03113098
         9218.396      0.03108717
         9219.925      0.03104332
         9221.449      0.03100039
         9222.978      0.03095733
         9224.507      0.03091419
         9226.031      0.03087113
         9227.562      0.03082785
         9229.086      0.03078468
         9230.621      0.03073788
         9232.152      0.03068636
         9233.673      0.03063518
         9235.203      0.03058364
         9236.734      0.03053204
         9238.267      0.03048037
         9239.798       0.0304287
          9241.33      0.03037974
         9242.853      0.03033146
         9244.385      0.03028284
         9245.917      0.03023417
          9247.45      0.03018543
         9248.983      0.03013665
         9250.513      0.03008655
         9252.041      0.03003369
         9253.575       0.0299806
         9255.109      0.02992748
         9256.644      0.02987433
         9258.174       0.0298213
         9259.703      0.02976826
         9261.239      0.02972261
         9262.774      0.02967875
         9264.311       0.0296348
         9265.847      0.02959079
         9267.372      0.02954704
         9268.909      0.02950288
         9270.446      0.02945486
         9271.983      0.02939746
         9273.521      0.02934006
         9275.048      0.02928301
         9276.596      0.02922517
         9278.129      0.02916786
         9279.662      0.02911055
           9281.2      0.02905587
         9282.734       0.0290021
         9284.278      0.02894795
         9285.808       0.0288943
         9287.348      0.02884025
         9288.888      0.02878615
         9290.423      0.02873572
         9291.968       0.0286942
         9293.504      0.02865283
         9295.039      0.02861143
         9296.586      0.02856963
         9298.122      0.02852804
         9299.663      0.02848625
           9301.2      0.02842963
         9302.742      0.02836865
         9304.285      0.02830762
         9305.822      0.02824681
         9307.365      0.02818578
         9308.909      0.02812469
         9310.452      0.02806858
         9311.985      0.02802463
         9313.529       0.0279803
         9315.079      0.02793572
         9316.618       0.0278914
         9318.163      0.02784684
         9319.708       0.0278022
         9321.243      0.02774727
         9322.789      0.02768943
         9324.334      0.02763161
         9325.881       0.0275737
         9327.427      0.02751581
         9328.968      0.02745808
         9330.515      0.02740483
         9332.057      0.02736108
         9333.604      0.02731709
         9335.151      0.02727306
         9336.694      0.02722906
         9338.242      0.02718486
         9339.786      0.02714069
         9341.334      0.02708356
         9342.883      0.02702432
         9344.427      0.02696525
         9345.977      0.02690594
         9347.521      0.02684685
         9349.071      0.02678748
         9350.621      0.02673097
         9352.171      0.02667866
         9353.717      0.02662645
         9355.263      0.02657419
         9356.813      0.02652172
         9358.365      0.02646918
         9359.917       0.0264166
         9361.469      0.02636852
         9363.021      0.02632063
         9364.563      0.02627295
         9366.116      0.02622491
         9367.669       0.0261768
         9369.222      0.02612864
         9370.775      0.02607555
         9372.329       0.0260176
         9373.873      0.02595999
         9375.427      0.02590199
         9376.981      0.02584393
         9378.536      0.02578584
         9380.092      0.02572762
         9381.646      0.02566796
         9383.197      0.02560844
         9384.748       0.0255489
         9386.304      0.02548916
          9387.86      0.02542937
         9389.417      0.02536956
         9390.968      0.02531712
         9392.525      0.02526873
         9394.077      0.02522046
         9395.635      0.02517194
         9397.188       0.0251235
         9398.746      0.02507482
         9400.305      0.02502377
         9401.857      0.02496341
         9403.417      0.02490278
         9404.971      0.02484236
          9406.53      0.02478169
          9408.09      0.02472102
         9409.645      0.02466052
         9411.204      0.02460557
         9412.765      0.02455224
         9414.325      0.02449886
         9415.882      0.02444557
         9417.438      0.02439226
         9418.999      0.02433871
         9420.561      0.02428609
         9422.123      0.02423515
         9423.685      0.02418418
         9425.247      0.02413312
           9426.8      0.02408232
         9428.362      0.02403114
         9429.926      0.02397987
         9431.489      0.02392231
         9433.054      0.02386438
         9434.617      0.02380646
         9436.177      0.02374864
         9437.736       0.0236908
         9439.301      0.02363276
         9440.866      0.02357551
         9442.432      0.02351893
         9443.991      0.02346252
         9445.558      0.02340583
         9447.118      0.02334932
         9448.685      0.02329255
         9450.251      0.02323542
         9451.813      0.02317672
          9453.38      0.02311784
         9454.947       0.0230589
          9456.51      0.02300011
         9458.078      0.02294108
         9459.642      0.02288221
          9461.21      0.02282988
         9462.778       0.0227795
         9464.342       0.0227292
         9465.911      0.02267864
          9467.48      0.02262801
         9469.046      0.02257744
         9470.615      0.02252354
         9472.181       0.0224649
         9473.751      0.02240604
         9475.322      0.02234712
         9476.893       0.0222882
         9478.459       0.0222294
         9480.025      0.02217052
         9481.598      0.02210817
         9483.169      0.02204586
         9484.742      0.02198346
         9486.314      0.02192107
         9487.888      0.02185864
          9489.45      0.02179662
         9491.023      0.02173875
         9492.597      0.02168331
         9494.171      0.02162778
         9495.745       0.0215722
         9497.319      0.02151656
         9498.889      0.02146105
         9500.459      0.02140803
         9502.034      0.02136109
         9503.609      0.02131417
         9505.186      0.02126723
         9506.756      0.02122048
         9508.332      0.02117357
         9509.903      0.02112682
          9511.48      0.02107845
         9513.058      0.02103002
          9514.63      0.02098175
         9516.207      0.02093335
         9517.785      0.02088495
         9519.357      0.02083674
         9520.937      0.02078735
          9522.51      0.02073751
         9524.089       0.0206875
         9525.668      0.02063752
         9527.242      0.02058772
         9528.821       0.0205378
         9530.401      0.02048891
         9531.977      0.02044322
         9533.557       0.0203974
         9535.133       0.0203517
         9536.713       0.0203059
         9538.295      0.02026005
         9539.876      0.02021424
         9541.447      0.02016693
         9543.029      0.02011916
         9544.611      0.02007141
         9546.194      0.02002366
         9547.777      0.01997592
          9549.36      0.01992819
         9550.943      0.01988341
         9552.517      0.01984087
         9554.101      0.01979803
         9555.685      0.01975519
         9557.269      0.01971235
         9558.854      0.01966948
         9560.438      0.01962287
         9562.019      0.01956673
         9563.599      0.01951065
         9565.185      0.01945442
         9566.771      0.01939825
         9568.356      0.01934215
         9569.938      0.01928628
         9571.524      0.01924127
         9573.106      0.01919686
         9574.693      0.01915232
         9576.281      0.01910776
         9577.863      0.01906336
         9579.451      0.01901881
         9581.034      0.01897448
         9582.623      0.01893005
         9584.212      0.01888561
         9585.796      0.01884132
         9587.386      0.01879687
          9588.97      0.01875259
          9590.56      0.01870653
         9592.149      0.01865751
          9593.74      0.01860847
         9595.325      0.01855965
         9596.911      0.01851083
         9598.503      0.01846186
         9600.094      0.01841297
         9601.686      0.01836456
         9603.277      0.01831617
         9604.859       0.0182681
         9606.452      0.01821974
         9608.045       0.0181714
         9609.638      0.01812309
         9611.231      0.01807611
         9612.825      0.01802954
         9614.419      0.01798298
         9616.002      0.01793675
         9617.597      0.01789021
         9619.191      0.01784368
         9620.786      0.01779791
         9622.382       0.0177529
         9623.977      0.01770792
         9625.567      0.01766306
         9627.158      0.01761822
         9628.754      0.01757324
         9630.351      0.01752778
         9631.947      0.01748066
         9633.539      0.01743372
         9635.137      0.01738662
         9636.729      0.01733971
         9638.326      0.01729265
         9639.925      0.01724559
         9641.518      0.01720006
         9643.116      0.01715444
          9644.71      0.01710898
         9646.309      0.01706338
         9647.908      0.01701778
         9649.503      0.01697232
         9651.103      0.01692588
         9652.697       0.0168792
         9654.298      0.01683237
         9655.898      0.01678556
           9657.5      0.01673875
         9659.096      0.01669213
         9660.692      0.01664482
         9662.294      0.01659649
         9663.896       0.0165482
         9665.498       0.0164999
         9667.101      0.01645164
         9668.704      0.01640338
         9670.296      0.01635486
         9671.899      0.01630321
         9673.503      0.01625161
         9675.107      0.01620003
         9676.711      0.01614854
         9678.315      0.01609706
          9679.91      0.01604594
         9681.515      0.01600583
          9683.12      0.01596634
         9684.726      0.01592684
         9686.331      0.01588731
         9687.933      0.01584787
         9689.538      0.01580831
          9691.14      0.01576451
         9692.746      0.01571884
         9694.354      0.01567316
         9695.956      0.01562763
         9697.563      0.01558198
         9699.171      0.01553635
         9700.774      0.01548917
         9702.383      0.01544007
         9703.986      0.01539115
         9705.595      0.01534213
         9707.204      0.01529311
         9708.809      0.01524428
         9710.418      0.01519695
         9712.022      0.01515435
         9713.633      0.01511159
         9715.244      0.01506882
          9716.85       0.0150262
          9718.46      0.01498344
         9720.071      0.01494029
         9721.684      0.01488908
          9723.29       0.0148381
         9724.896      0.01478717
         9726.509      0.01473611
         9728.122      0.01468507
         9729.734      0.01463412
         9731.348      0.01458751
         9732.962      0.01454174
         9734.564      0.01449632
         9736.179      0.01445059
         9737.793      0.01440488
         9739.407       0.0143592
         9741.022      0.01431419
         9742.638       0.0142696
         9744.242      0.01422531
         9745.858      0.01418072
         9747.474      0.01413617
          9749.09       0.0140916
         9750.706      0.01404687
         9752.317      0.01400206
         9753.935      0.01395711
         9755.547       0.0139123
         9757.164      0.01386738
         9758.782      0.01382244
         9760.395      0.01377777
         9762.013      0.01373324
         9763.632       0.0136887
         9765.245      0.01364433
         9766.864      0.01359982
         9768.479      0.01355545
         9770.098       0.0135106
         9771.718      0.01346013
         9773.333      0.01340986
         9774.953       0.0133595
         9776.568      0.01330933
         9778.189      0.01325905
         9779.811      0.01320882
         9781.427      0.01316375
         9783.049       0.0131192
         9784.671      0.01307466
         9786.293      0.01303014
          9787.91      0.01298576
         9789.528      0.01294137
         9791.151      0.01289482
         9792.774      0.01284746
         9794.398       0.0128001
         9796.022      0.01275278
         9797.646       0.0127055
         9799.261      0.01265854
         9800.885      0.01261029
          9802.51      0.01256119
         9804.136       0.0125121
         9805.761       0.0124631
         9807.387      0.01241411
         9809.008      0.01236533
         9810.629      0.01231865
         9812.255      0.01227513
         9813.882      0.01223158
          9815.51      0.01218802
         9817.132      0.01214464
         9818.759      0.01210113
         9820.382      0.01205688
          9822.01      0.01200975
         9823.639      0.01196263
         9825.262      0.01191572
         9826.891      0.01186868
         9828.515      0.01182183
         9830.145      0.01177468
         9831.774      0.01172603
         9833.399      0.01167757
         9835.029      0.01162901
         9836.655      0.01158063
         9838.286      0.01153215
         9839.917      0.01148373
         9841.549      0.01144114
         9843.175      0.01139902
         9844.802      0.01135688
         9846.435      0.01131458
         9848.066      0.01127232
         9849.699      0.01123004
         9851.333      0.01118431
         9852.955      0.01113818
         9854.589      0.01109175
         9856.223      0.01104536
         9857.857      0.01099898
         9859.491      0.01095267
         9861.126      0.01090796
         9862.762      0.01086397
         9864.386      0.01082031
         9866.021      0.01077635
         9867.657      0.01073242
         9869.293       0.0106885
          9870.93      0.01064355
         9872.566      0.01059784
         9874.198       0.0105523
          9875.83       0.0105068
         9877.467       0.0104612
         9879.104      0.01041561
         9880.743      0.01037041
         9882.376      0.01032588
         9884.015      0.01028122
         9885.647      0.01023674
         9887.287      0.01019211
         9888.926      0.01014753
         9890.561      0.01010253
           9892.2      0.01005637
         9893.835      0.01001038
         9895.476     0.009964278
         9897.116     0.009918215
         9898.752     0.009872331
         9900.393     0.009826358
         9902.029     0.009780566
         9903.671     0.009734677
         9905.313     0.009688803
         9906.955     0.009642998
         9908.593     0.009597345
          9910.23     0.009551875
         9911.873     0.009507164
         9913.517      0.00946246
          9915.16     0.009417789
         9916.805     0.009373124
         9918.438      0.00932881
         9920.082     0.009284252
         9921.728     0.009240466
         9923.372     0.009196732
         9925.018     0.009152998
         9926.663      0.00910929
         9928.309     0.009065604
         9929.944     0.009022206
         9931.591     0.008977543
         9933.237     0.008932879
         9934.885     0.008888226
         9936.531     0.008843637
          9938.18     0.008799029
         9939.821     0.008754642
         9941.464     0.008710587
         9943.112      0.00866645
         9944.761     0.008622343
          9946.41     0.008578242
         9948.054     0.008534331
         9949.703     0.008490292
         9951.348     0.008446614
         9952.997     0.008402877
         9954.647     0.008359144
         9956.293     0.008315571
         9957.943     0.008271899
         9959.589     0.008228384
          9961.24     0.008183512
         9962.893     0.008138251
         9964.539       0.0080932
          9966.19     0.008048063
         9967.838     0.008003078
          9969.49      0.00795801
         9971.144      0.00791533
         9972.797     0.007873722
         9974.444     0.007832271
         9976.093     0.007790808
         9977.747     0.007749205
         9979.401     0.007707614
         9981.057     0.007664353
         9982.711     0.007620217
         9984.355     0.007576382
         9986.011     0.007532301
         9987.667     0.007488232
         9989.322      0.00744423
         9990.979     0.007400397
         9992.636     0.007356679
         9994.292     0.007313023
         9995.938     0.007269663
         9997.596     0.007226055
         9999.253     0.007182486
         10000.91     0.007148656
         10002.57     0.007122836
         10004.22     0.007097213
         10005.89     0.007071272
         10007.54     0.007045696
         10009.19     0.007019985
         10010.85     0.006994409
          10012.5     0.006969114
         10014.17     0.006943518
         10015.82     0.006918282
         10017.48      0.00689291
         10019.14     0.006867555
         10020.79     0.006842106
         10022.47     0.006816036
         10024.12     0.006790347
         10025.78     0.006764513
         10027.44      0.00673871
         10029.09     0.006713112
         10030.77     0.006686206
         10032.42     0.006658584
         10034.08     0.006630801
         10035.75     0.006603085
         10037.41     0.006575404
         10039.08     0.006547775
         10040.73     0.006521525
         10042.39     0.006496643
         10044.06     0.006471776
         10045.72     0.006446926
         10047.39     0.006422119
         10049.06     0.006397329
         10050.72     0.006372055
         10052.38     0.006346293
         10054.04     0.006320423
         10055.71     0.006294576
         10057.38     0.006268753
         10059.05     0.006242986
         10060.71     0.006216662
         10062.37     0.006189779
         10064.04     0.006162774
         10065.71     0.006135805
         10067.38     0.006108886
         10069.05     0.006082019
         10070.72     0.006056391
         10072.38     0.006032554
         10074.04     0.006008591
         10075.71     0.005984657
         10077.39     0.005960737
         10079.06     0.005936845
         10080.72     0.005912641
          10082.4     0.005887485
         10084.06     0.005862704
         10085.73     0.005837787
          10087.4     0.005812891
         10089.07     0.005788208
         10090.75     0.005763132
         10092.41     0.005738293
         10094.08     0.005713317
         10095.76     0.005688382
         10097.42     0.005663663
         10099.11     0.005638633
         10100.77      0.00561374
         10102.44     0.005588438
         10104.12     0.005563166
         10105.79     0.005537954
         10107.46     0.005512933
         10109.14     0.005487796
         10110.81     0.005463629
         10112.49     0.005440472
         10114.17     0.005417341
         10115.84     0.005394239
         10117.52     0.005371165
         10119.19     0.005348251
         10120.86     0.005325436
         10122.54     0.005302852
         10124.22     0.005280279
          10125.9     0.005257729
         10127.58     0.005235206
         10129.25      0.00521285
         10130.92     0.005189342
          10132.6     0.005165041
         10134.28     0.005140782
         10135.96      0.00511655
         10137.65      0.00509236
         10139.33      0.00506821
           10141.     0.005044463
         10142.68     0.005020727
         10144.36     0.004997029
         10146.04     0.004973357
         10147.72     0.004949737
          10149.4     0.004926291
         10151.08     0.004902691
         10152.76     0.004879105
         10154.43     0.004855696
         10156.13     0.004832024
          10157.8     0.004808691
         10159.49     0.004785235
         10161.17     0.004762105
         10162.84     0.004739284
         10164.54     0.004716204
         10166.21     0.004693438
          10167.9     0.004670563
         10169.58     0.004647722
         10171.27     0.004624993
         10172.96     0.004602328
         10174.63     0.004579841
         10176.32     0.004557244
         10178.01     0.004534669
          10179.7     0.004512127
         10181.38     0.004489161
         10183.07      0.00446612
         10184.76     0.004443118
         10186.44     0.004420303
         10188.13     0.004397382
         10189.82     0.004374487
          10191.5     0.004351664
         10193.19     0.004328883
         10194.88     0.004306129
         10196.58     0.004283416
         10198.25     0.004260886
         10199.95     0.004238253
         10201.64     0.004215294
         10203.33     0.004192369
         10205.02     0.004169488
          10206.7     0.004146783
         10208.39     0.004123975
         10210.09     0.004101278
         10211.78     0.004079854
         10213.47     0.004058449
         10215.15     0.004037208
         10216.85      0.00401586
         10218.54     0.003994532
         10220.24     0.003973173
         10221.93     0.003951479
         10223.61     0.003929957
         10225.31      0.00390832
           10227.     0.003886718
          10228.7      0.00386515
          10230.4     0.003843605
         10232.08     0.003822245
         10233.78      0.00380076
         10235.47     0.003779321
         10237.17     0.003757905
         10238.87     0.003736525
         10240.57     0.003714916
         10242.25     0.003693003
         10243.95      0.00367098
         10245.65     0.003649001
         10247.35     0.003627054
         10249.05     0.003605164
         10250.75     0.003582882
         10252.45     0.003560142
         10254.14     0.003537602
         10255.84     0.003514958
         10257.54     0.003492371
         10259.24     0.003469825
         10260.94     0.003448439
         10262.64     0.003427987
         10264.33     0.003407694
         10266.03      0.00338729
         10267.73     0.003366917
         10269.44     0.003346574
         10271.14     0.003325533
         10272.83     0.003304326
         10274.53     0.003283016
         10276.24      0.00326175
         10277.94     0.003240515
         10279.65     0.003219325
         10281.34     0.003198842
         10283.04     0.003178395
         10284.75     0.003157984
         10286.45     0.003137608
         10288.16     0.003117268
         10289.85      0.00309709
         10291.56     0.003076891
         10293.27     0.003056723
         10294.97     0.003036601
         10296.68     0.003016501
         10298.39     0.002996425
         10300.08     0.002976502
         10301.79     0.002956119
          10303.5     0.002935766
         10305.21     0.002915441
         10306.92     0.002895167
         10308.63     0.002874921
         10310.32     0.002854735
         10312.03     0.002833991
         10313.74     0.002813307
         10315.45     0.002792648
         10317.16     0.002772048
         10318.87     0.002751484
         10320.58     0.002731313
         10322.28     0.002711976
           10324.     0.002692527
         10325.71     0.002673112
         10327.42      0.00265373
         10329.13     0.002634382
         10330.84     0.002614882
         10332.56     0.002595241
         10334.26     0.002575762
         10335.97     0.002556198
         10337.69     0.002536662
          10339.4     0.002517166
         10341.12     0.002497596
         10342.82     0.002478147
         10344.53     0.002458605
         10346.25     0.002439104
         10347.96     0.002419635
         10349.68     0.002400206
         10351.38     0.002381242
          10353.1     0.002362265
         10354.82     0.002343313
         10356.53     0.002324396
         10358.25     0.002305514
         10359.96     0.002286786
         10361.67     0.002267447
         10363.39     0.002248128
         10365.11     0.002228865
         10366.83     0.002209635
         10368.54      0.00219058
         10370.26     0.002171488
         10371.98     0.002152783
          10373.7     0.002134115
         10375.42     0.002115484
         10377.14     0.002096881
         10378.86     0.002078325
         10380.57     0.002059752
         10382.29     0.002040783
         10384.01      0.00202185
         10385.73     0.002002963
         10387.45     0.001984122
         10389.17     0.001965317
         10390.89     0.001946972
         10392.61     0.001928799
         10394.33     0.001910673
         10396.06     0.001892571
         10397.78     0.001874505
          10399.5     0.001856475
         10401.22     0.001838341
         10402.94      0.00182002
         10404.67     0.001801732
         10406.39     0.001783497
         10408.12     0.001765295
         10409.83     0.001747258
         10411.56     0.001729104
         10413.28     0.001710989
         10415.01     0.001692918
         10416.74      0.00167489
         10418.45     0.001657019
         10420.18      0.00163907
         10421.91     0.001621181
         10423.63     0.001603336
         10425.36     0.001585523
         10427.08     0.001567875
         10428.81     0.001550139
         10430.54     0.001532557
         10432.27     0.001515225
           10434.     0.001497919
         10435.73      0.00148066
         10437.45     0.001463543
         10439.18     0.001446346
         10440.91     0.001429169
         10442.64     0.001412023
         10444.37     0.001394915
          10446.1     0.001377842
         10447.83     0.001360807
         10449.56     0.001343902
         10451.29     0.001326813
         10453.02     0.001309724
         10454.75     0.001292665
         10456.49     0.001275647
         10458.22      0.00125867
         10459.94     0.001241838
         10461.68     0.001225261
         10463.41     0.001208726
         10465.15     0.001192213
         10466.88     0.001175732
         10468.61     0.001159393
         10470.35     0.001142716
         10472.08     0.001125726
         10473.81     0.001108673
         10475.55     0.001091663
         10477.29     0.001074715
         10479.03      0.00105781
         10480.75     0.001041271
         10482.49     0.001024914
         10484.23     0.001008595
         10485.97     9.923143E-4
          10487.7     9.760712E-4
         10489.43     9.599659E-4
         10491.17     9.436668E-4
         10492.91     9.273516E-4
         10494.64     9.111811E-4
         10496.39     8.948446E-4
         10498.12     8.787531E-4
         10499.86     8.626052E-4
          10501.6     8.580855E-4
         10503.34     8.545920E-4
         10505.08     8.511050E-4
         10506.81     8.476459E-4
         10508.56     8.441696E-4
          10510.3     8.406781E-4
         10512.04     8.370854E-4
         10513.78     8.335022E-4
         10515.53     8.299245E-4
         10517.27     8.263521E-4
           10519.     8.228113E-4
         10520.75     8.193532E-4
         10522.49     8.160338E-4
         10524.24     8.127200E-4
         10525.98     8.094099E-4
         10527.73     8.061054E-4
         10529.46     8.028268E-4
         10531.21     7.995457E-4
         10532.95     7.962768E-4
          10534.7     7.930132E-4
         10536.45     7.897532E-4
         10538.19     7.864988E-4
         10539.93     7.832713E-4
         10541.68     7.799616E-4
         10543.42     7.766568E-4
         10545.17     7.733544E-4
         10546.92     7.700601E-4
         10548.66     7.667917E-4
         10550.41     7.634439E-4
         10552.16     7.598940E-4
         10553.91     7.563503E-4
         10555.66     7.528150E-4
         10557.39     7.493116E-4
         10559.14     7.457932E-4
         10560.89     7.424583E-4
         10562.65     7.392993E-4
          10564.4     7.361437E-4
         10566.14     7.330163E-4
         10567.89     7.298711E-4
         10569.64     7.267298E-4
         10571.39     7.233353E-4
         10573.15     7.198798E-4
          10574.9     7.164326E-4
         10576.64     7.130146E-4
          10578.4     7.095820E-4
         10580.15     7.061891E-4
          10581.9     7.031392E-4
         10583.66     7.000925E-4
         10585.41     6.970507E-4
         10587.17     6.940139E-4
         10588.91     6.910023E-4
         10590.67     6.878669E-4
         10592.42     6.845641E-4
         10594.18     6.812668E-4
         10595.94     6.779772E-4
         10597.69     6.746953E-4
         10599.44     6.714425E-4
          10601.2     6.683034E-4
         10602.95     6.652314E-4
         10604.71     6.621650E-4
         10606.47     6.591046E-4
         10608.22     6.560686E-4
         10609.98     6.530177E-4
         10611.74     6.500337E-4
         10613.49     6.470573E-4
         10615.25     6.440845E-4
           10617.     6.411349E-4
         10618.76     6.381726E-4
         10620.52     6.351081E-4
         10622.29     6.317994E-4
         10624.05     6.285012E-4
          10625.8     6.252318E-4
         10627.56     6.219492E-4
         10629.32     6.186749E-4
         10631.08     6.156027E-4
         10632.84     6.126591E-4
         10634.61     6.097209E-4
         10636.36     6.068063E-4
         10638.12     6.038775E-4
         10639.89     6.009543E-4
         10641.65     5.979761E-4
         10643.42     5.950014E-4
         10645.18     5.920316E-4
         10646.93     5.890857E-4
          10648.7     5.861263E-4
         10650.46     5.831738E-4
         10652.23     5.802289E-4
           10654.     5.772903E-4
         10655.76     5.743559E-4
         10657.53     5.714264E-4
         10659.29     5.685239E-4
         10661.05     5.655672E-4
         10662.82     5.625905E-4
         10664.59     5.596207E-4
         10666.36     5.566561E-4
         10668.13     5.536983E-4
         10669.89     5.507473E-4
         10671.65     5.476397E-4
         10673.42     5.445084E-4
         10675.19     5.413858E-4
         10676.96     5.382724E-4
         10678.73     5.351662E-4
         10680.49     5.321978E-4
         10682.26     5.294982E-4
         10684.03     5.268048E-4
          10685.8     5.241145E-4
         10687.58     5.214273E-4
         10689.33     5.187643E-4
         10691.11     5.159329E-4
         10692.88     5.130161E-4
         10694.65     5.101049E-4
         10696.43     5.072029E-4
         10698.19     5.043242E-4
         10699.96     5.014354E-4
         10701.74     4.986135E-4
         10703.51     4.957997E-4
         10705.29     4.929925E-4
         10707.05     4.902107E-4
         10708.82     4.874153E-4
          10710.6     4.846085E-4
         10712.38     4.817775E-4
         10714.15     4.789522E-4
         10715.93     4.761342E-4
         10717.69     4.733421E-4
         10719.47     4.705371E-4
         10721.25     4.678504E-4
         10723.02     4.652167E-4
          10724.8     4.625870E-4
         10726.58     4.599628E-4
         10728.36     4.573440E-4
         10730.13     4.547423E-4
         10731.91     4.520522E-4
         10733.68     4.493687E-4
         10735.46     4.466901E-4
         10737.25     4.440181E-4
         10739.03     4.413525E-4
         10740.79     4.387524E-4
         10742.57     4.361922E-4
         10744.36     4.336360E-4
         10746.14     4.310837E-4
         10747.92     4.285382E-4
         10749.69     4.260132E-4
         10751.47     4.234132E-4
         10753.25     4.208059E-4
         10755.04     4.182035E-4
         10756.82     4.156075E-4
         10758.59     4.130348E-4
         10760.38     4.104364E-4
         10762.16     4.077945E-4
         10763.94     4.051596E-4
         10765.73     4.025305E-4
          10767.5     3.999257E-4
         10769.29     3.973109E-4
         10771.07     3.946797E-4
         10772.86     3.920391E-4
         10774.65     3.894062E-4
         10776.43     3.867808E-4
         10778.21     3.841790E-4
         10779.99     3.815675E-4
         10781.78     3.790488E-4
         10783.57     3.765356E-4
         10785.36     3.740289E-4
         10787.15     3.715288E-4
         10788.93     3.690351E-4
         10790.71     3.665452E-4
          10792.5     3.640188E-4
         10794.29     3.614982E-4
         10796.08     3.589862E-4
         10797.87     3.564799E-4
         10799.66     3.539794E-4
         10801.44     3.515221E-4
         10803.23     3.490585E-4
         10805.02     3.466017E-4
         10806.81     3.441506E-4
          10808.6     3.417061E-4
          10810.4     3.392818E-4
         10812.18     3.369258E-4
         10813.97     3.345590E-4
         10815.76     3.321982E-4
         10817.56     3.298435E-4
         10819.35     3.274934E-4
         10821.13     3.251694E-4
         10822.93     3.228388E-4
         10824.72     3.205141E-4
         10826.51     3.181941E-4
         10828.31     3.158800E-4
         10830.09     3.135726E-4
         10831.89     3.110234E-4
         10833.69     3.084840E-4
         10835.48     3.059541E-4
         10837.28     3.034325E-4
         10839.06     3.009368E-4
         10840.86     2.985477E-4
         10842.66     2.962889E-4
         10844.46     2.940348E-4
         10846.25     2.917854E-4
         10848.05     2.895431E-4
         10849.84     2.873202E-4
         10851.64     2.850408E-4
         10853.44     2.827634E-4
         10855.24     2.804916E-4
         10857.04     2.782266E-4
         10858.84     2.759685E-4
         10860.64     2.737096E-4
         10862.43     2.714609E-4
         10864.23     2.692045E-4
         10866.03     2.669540E-4
         10867.83     2.647107E-4
         10869.63     2.624744E-4
         10871.43     2.602861E-4
         10873.22     2.581276E-4
         10875.03     2.559611E-4
         10876.83     2.538010E-4
         10878.63     2.516459E-4
         10880.44     2.494919E-4
         10882.24     2.473274E-4
         10884.03     2.451846E-4
         10885.84     2.430333E-4
         10887.64     2.408886E-4
         10889.45     2.387494E-4
         10891.25     2.366500E-4
         10893.05     2.345855E-4
         10894.85     2.325112E-4
         10896.66     2.304427E-4
         10898.47     2.283800E-4
         10900.27     2.263031E-4
         10902.07     2.241346E-4
         10903.88     2.219603E-4
         10905.69     2.197942E-4
         10907.49     2.176353E-4
          10909.3     2.154857E-4
          10911.1     2.134150E-4
         10912.91     2.113732E-4
         10914.72     2.093380E-4
         10916.53     2.073092E-4
         10918.34     2.052868E-4
         10920.15     2.032666E-4
         10921.95     2.012304E-4
         10923.76     1.991883E-4
         10925.57     1.971522E-4
         10927.38     1.951234E-4
         10929.19     1.931019E-4
           10931.     1.910787E-4
         10932.82     1.890568E-4
         10934.62     1.870554E-4
         10936.43     1.850484E-4
         10938.24     1.830479E-4
         10940.06     1.810555E-4
         10941.87     1.790830E-4
         10943.69     1.771178E-4
         10945.49     1.751735E-4
          10947.3     1.732216E-4
         10949.12     1.712781E-4
         10950.93     1.693672E-4
         10952.75     1.674866E-4
         10954.56     1.656131E-4
         10956.37     1.637568E-4
         10958.19     1.618945E-4
           10960.     1.600372E-4
         10961.82     1.581529E-4
         10963.63     1.562886E-4
         10965.44     1.544171E-4
         10967.26     1.525525E-4
         10969.08     1.506948E-4
          10970.9     1.488566E-4
         10972.72     1.470368E-4
         10974.54     1.452234E-4
         10976.34     1.434278E-4
         10978.16     1.416269E-4
         10979.98     1.398313E-4
          10981.8     1.379872E-4
         10983.63     1.361494E-4
         10985.45     1.343194E-4
         10987.26     1.325089E-4
         10989.08     1.306943E-4
          10990.9     1.289157E-4
         10992.72     1.271733E-4
         10994.54     1.254372E-4
         10996.36     1.237174E-4
         10998.18     1.219926E-4
           11000.     1.202767E-4
