#  Table wf3f300wsys.tab  Mon 12:22:13 02-Jun-97

#      WAVELENGTH      THROUGHPUT
#       angstroms                

            2220.    1.657318E-11
         2221.779     2.714675E-9
         2223.557     5.445559E-9
         2225.339     8.217638E-9
         2227.122     1.102698E-8
         2228.904     1.387061E-8
          2230.69     2.172368E-8
         2232.476     3.761682E-8
         2234.265     5.373023E-8
         2236.054     7.004287E-8
         2237.846     8.657801E-8
         2239.636     1.033026E-7
         2241.431     1.251333E-7
         2243.227     1.484864E-7
         2245.023     1.721099E-7
         2246.821     1.960272E-7
          2248.62     2.202331E-7
         2250.421     2.625344E-7
         2252.225     3.642638E-7
         2254.027     4.670020E-7
         2255.833     5.711290E-7
          2257.64     6.764263E-7
         2259.448     7.829693E-7
         2261.258     9.745887E-7
          2263.07     1.205495E-6
         2264.881     1.438726E-6
         2266.696     1.674984E-6
          2268.51     1.913743E-6
         2270.327     2.224253E-6
         2272.146     2.855202E-6
         2273.966     3.492881E-6
         2275.786     4.137569E-6
         2277.609     4.789380E-6
         2279.434     5.448788E-6
         2281.259     6.450156E-6
         2283.087     7.614859E-6
         2284.915     8.791313E-6
         2286.744     9.980343E-6
         2288.576     1.118216E-5
         2290.411     1.269305E-5
         2292.243     1.524356E-5
          2294.08     1.782425E-5
         2295.917     2.043009E-5
         2297.755     2.306939E-5
         2299.597     2.573974E-5
         2301.438     2.952248E-5
         2303.281     3.365217E-5
         2305.126     3.782935E-5
         2306.971     4.204478E-5
         2308.821     4.631374E-5
         2310.669     5.183840E-5
          2312.52     5.957811E-5
         2314.371     6.739770E-5
         2316.226     7.530479E-5
         2318.081     8.328830E-5
         2319.938     9.135910E-5
         2321.796     1.018017E-4
         2323.655     1.124297E-4
         2325.515     1.231647E-4
         2327.379     1.340143E-4
         2329.242     1.449661E-4
         2331.107     1.598366E-4
         2332.975     1.774893E-4
         2334.842     1.952904E-4
         2336.713     2.132917E-4
         2338.585     2.314706E-4
         2340.458     2.502212E-4
         2342.332     2.704243E-4
         2344.208     2.908192E-4
         2346.085     3.114096E-4
         2347.966     3.322205E-4
         2349.846     3.531986E-4
         2351.728     3.842738E-4
         2353.611     4.165255E-4
         2355.495     4.490800E-4
         2357.383     4.819516E-4
         2359.271     5.151288E-4
         2361.159     5.529390E-4
         2363.052     5.939109E-4
         2364.944     6.352184E-4
         2366.839     6.769273E-4
         2368.734     7.189739E-4
         2370.632     7.647085E-4
         2372.529     8.173715E-4
          2374.43     8.705614E-4
         2376.332     9.242195E-4
         2378.234     9.782710E-4
         2380.139     0.001033389
         2382.047     0.001095765
         2383.953     0.001158578
         2385.863     0.001222015
         2387.775     0.001285974
         2389.685     0.001350383
           2391.6     0.001425467
         2393.515     0.001503103
         2395.433      0.00158143
         2397.351     0.001660332
         2399.271      0.00173988
         2401.192     0.001823375
         2403.116     0.001909629
         2405.042      0.00199656
         2406.967     0.002084114
         2408.895     0.002172361
         2410.823     0.002265668
         2412.754     0.002365617
         2414.689      0.00246648
         2416.621     0.002567892
         2418.557     0.002670211
         2420.494      0.00277441
         2422.432     0.002882782
         2424.373     0.002992048
         2426.316     0.003102117
         2428.257     0.003212837
         2430.203     0.003325592
         2432.149     0.003448241
         2434.096     0.003571754
         2436.047     0.003696259
         2437.997     0.003821571
         2439.949     0.003947772
         2441.903     0.004074441
         2443.861     0.004202155
         2445.817     0.004330499
         2447.777     0.004459906
         2449.737     0.004590122
         2451.698     0.004727251
         2453.663     0.004866334
         2455.627      0.00500629
         2457.594     0.005147188
         2459.563     0.005289141
         2461.531     0.005426814
         2463.503     0.005564157
         2465.477     0.005702403
         2467.451     0.005841468
         2469.427     0.005981456
         2471.406     0.006130152
         2473.384     0.006282754
         2475.367     0.006436665
         2477.349     0.006591378
         2479.333     0.006747087
         2481.318     0.006896306
         2483.306     0.007042764
         2485.295     0.007190052
         2487.286     0.007338355
         2489.278     0.007487513
         2491.271     0.007643127
         2493.266     0.007802838
         2495.264     0.007963705
         2497.261     0.008125433
         2499.261     0.008288205
         2501.264     0.008441668
         2503.265     0.008589745
         2505.271     0.008738939
         2507.277     0.008888919
         2509.286     0.009039933
         2511.295     0.009198469
         2513.308     0.009361797
         2515.319     0.009525913
         2517.336     0.009691358
          2519.35     0.009857478
         2521.369      0.01000991
         2523.388      0.01015606
         2525.408      0.01030306
         2527.432      0.01045104
         2529.457      0.01059988
         2531.481      0.01075599
          2533.51      0.01091568
         2535.538      0.01107619
          2537.57      0.01123255
         2539.602        0.011376
         2541.637      0.01150137
          2543.67      0.01162236
         2545.708      0.01174385
         2547.749       0.0118657
         2549.787      0.01198769
          2551.83      0.01211943
         2553.875      0.01225264
         2555.918      0.01238602
         2557.967      0.01251997
         2560.016      0.01265407
         2562.065      0.01276249
         2564.117      0.01287132
         2566.171      0.01298037
         2568.227      0.01308977
         2570.283      0.01320037
         2572.343      0.01331776
         2574.401      0.01343528
         2576.464      0.01355327
         2578.527      0.01367147
         2580.593      0.01378344
          2582.66      0.01387914
         2584.729      0.01397512
         2586.797      0.01407119
         2588.872      0.01416768
         2590.943      0.01426479
         2593.019      0.01436299
         2595.095      0.01446135
         2597.173      0.01455992
         2599.254      0.01465879
         2601.337      0.01474994
         2603.419      0.01483673
         2605.505      0.01492382
          2607.59      0.01501096
         2609.679      0.01509838
          2611.77      0.01518589
         2613.862      0.01527348
         2615.955      0.01536125
         2618.049       0.0154492
         2620.148      0.01553687
         2622.245      0.01561729
         2624.346      0.01569795
         2626.448      0.01577869
         2628.551      0.01585959
         2630.657      0.01593919
         2632.765      0.01601566
         2634.872      0.01609215
         2636.983      0.01616886
         2639.094      0.01624563
         2641.209      0.01631677
         2643.324      0.01638359
          2645.44      0.01645049
         2647.559      0.01651747
          2649.68      0.01658456
           2651.8      0.01664387
         2653.927      0.01670197
         2656.052      0.01676003
         2658.178      0.01681811
         2660.307      0.01687551
         2662.439      0.01692858
         2664.571      0.01698163
         2666.706      0.01703473
         2668.841      0.01708781
         2670.978      0.01714051
         2673.117      0.01719275
         2675.259      0.01724504
         2677.401       0.0172973
         2679.545      0.01734956
         2681.692      0.01740237
         2683.838      0.01745525
         2685.988       0.0175082
          2688.14      0.01756116
         2690.293      0.01761611
         2692.447      0.01768398
         2694.603      0.01775191
         2696.761      0.01781989
         2698.923      0.01788803
         2701.084      0.01796363
         2703.247      0.01804691
         2705.412      0.01813047
         2707.578      0.01821427
         2709.747      0.01829839
         2711.919       0.0183796
          2714.09      0.01846055
         2716.263      0.01854176
         2718.438      0.01862321
         2720.617      0.01870079
         2722.795      0.01876796
         2724.977      0.01883532
         2727.157      0.01890273
         2729.343      0.01897038
         2731.528      0.01903447
         2733.715       0.0190971
         2735.906      0.01915988
         2738.098      0.01922276
         2740.289      0.01928507
         2742.485      0.01934346
         2744.681      0.01940189
         2746.878      0.01946041
         2749.079      0.01951905
         2751.279      0.01955359
         2753.485      0.01957083
          2755.69      0.01958808
         2757.897      0.01960535
         2760.105      0.01962234
         2762.317      0.01963327
          2764.53      0.01964422
         2766.744      0.01965517
         2768.959      0.01966612
         2771.176      0.01967597
         2773.395      0.01968483
         2775.619       0.0196937
          2777.84      0.01970256
         2780.066      0.01971123
         2782.292      0.01971335
          2784.52      0.01971544
         2786.751      0.01971752
         2788.984       0.0197196
         2791.216      0.01972305
         2793.452      0.01972768
         2795.689       0.0197323
         2797.927      0.01973692
         2800.169      0.01974119
          2802.41      0.01974121
         2804.656      0.01974121
         2806.901      0.01974121
         2809.151      0.01974119
           2811.4      0.01973915
         2813.653      0.01973587
         2815.904      0.01973257
          2818.16      0.01972925
         2820.419      0.01972573
         2822.677      0.01972138
         2824.937        0.019717
         2827.201       0.0197126
         2829.463      0.01970819
         2831.732       0.0197056
         2833.999      0.01970357
         2836.269      0.01970152
          2838.54      0.01969945
         2840.814      0.01969889
         2843.089      0.01970105
         2845.367       0.0197032
         2847.645      0.01970535
         2849.926       0.0197075
         2852.208      0.01970146
         2854.491      0.01969513
         2856.777      0.01968878
         2859.068       0.0196824
         2861.357       0.0196805
         2863.648       0.0196817
         2865.943      0.01968289
         2868.238      0.01968407
         2870.534      0.01968328
         2872.833      0.01967606
         2875.135      0.01966881
         2877.436      0.01966155
         2879.741      0.01965425
         2882.047      0.01965046
         2884.356      0.01964709
         2886.666      0.01964371
         2888.979      0.01964032
         2891.291      0.01963109
         2893.609      0.01961721
         2895.924      0.01960332
         2898.245      0.01958937
         2900.566      0.01956705
          2902.89      0.01951875
         2905.214      0.01947048
         2907.541       0.0194222
         2909.869      0.01937391
           2912.2      0.01933363
         2914.532      0.01929384
         2916.867      0.01925401
         2919.203      0.01921419
         2921.542      0.01916953
          2923.88      0.01912244
         2926.223      0.01907529
         2928.568      0.01902813
         2930.911      0.01898001
          2933.26      0.01893019
         2935.608      0.01888041
         2937.959      0.01883061
         2940.313       0.0187815
         2942.669      0.01873701
         2945.024      0.01869256
         2947.384      0.01864804
         2949.744      0.01860355
         2952.107      0.01855605
         2954.471      0.01850822
         2956.838      0.01846036
         2959.204      0.01841256
         2961.575      0.01836603
         2963.947       0.0183202
         2966.322      0.01827433
         2968.697       0.0182285
         2971.074      0.01817869
         2973.453      0.01812409
         2975.837      0.01806943
         2978.219      0.01801489
         2980.605      0.01796212
          2982.99      0.01791481
         2985.382      0.01786739
         2987.772      0.01782005
         2990.165      0.01777232
         2992.559      0.01771934
         2994.957      0.01766634
         2997.355      0.01761339
         2999.755      0.01756045
         3002.159      0.01750771
         3004.563      0.01745504
         3006.969      0.01740238
         3009.376      0.01734974
          3011.79      0.01729763
         3014.199      0.01724586
         3016.615      0.01719402
          3019.03      0.01714224
         3021.448      0.01709142
         3023.869      0.01704122
          3026.29      0.01699106
         3028.713      0.01694092
          3031.14      0.01688816
         3033.567      0.01683253
         3035.998      0.01677689
         3038.427      0.01672136
         3040.864      0.01666606
         3043.297      0.01661152
         3045.735      0.01655693
         3048.174       0.0165024
         3050.617      0.01644686
         3053.059      0.01638845
         3055.504      0.01633007
         3057.951      0.01627173
         3060.401      0.01621369
         3062.852      0.01615732
         3065.306      0.01610095
         3067.759      0.01604468
         3070.217      0.01598803
         3072.677      0.01592797
         3075.137      0.01586799
           3077.6      0.01580805
         3080.064      0.01574814
          3082.53      0.01568795
            3085.      0.01562775
          3087.47      0.01556764
         3089.944      0.01550753
         3092.418      0.01544551
         3094.895      0.01538349
         3097.373      0.01532151
         3099.853      0.01525959
         3102.339      0.01524113
         3104.821      0.01522533
         3107.309      0.01520942
         3109.797      0.01519341
         3112.287      0.01517259
         3114.781      0.01515122
         3117.277      0.01512973
         3119.771      0.01510815
         3122.271       0.0150831
         3124.771      0.01505761
         3127.275      0.01503197
         3129.779       0.0150062
         3132.287      0.01497916
         3134.793      0.01495191
         3137.305      0.01492448
         3139.817      0.01489693
         3142.331      0.01487296
         3144.849      0.01484914
         3147.369      0.01482519
         3149.888      0.01480114
         3152.412      0.01476704
         3154.936      0.01473233
         3157.462      0.01469746
         3159.992      0.01466241
         3162.521      0.01463281
         3165.057      0.01460301
         3167.591      0.01457311
         3170.127      0.01454273
         3172.666      0.01450579
         3175.208      0.01446866
          3177.75      0.01443138
         3180.297      0.01439427
         3182.843      0.01435984
         3185.392      0.01432524
         3187.942      0.01429048
         3190.499      0.01425374
         3193.052      0.01420959
          3195.61      0.01416518
         3198.169      0.01412062
          3200.73      0.01407802
         3203.295      0.01404067
         3205.861      0.01400315
         3208.427      0.01396551
         3210.997      0.01392369
         3213.569      0.01387543
         3216.142      0.01382697
         3218.719      0.01377827
         3221.294      0.01373262
         3223.875       0.0136899
         3226.457      0.01364702
         3229.042      0.01360391
         3231.628      0.01355495
         3234.217      0.01350238
         3236.805      0.01344965
         3239.399      0.01339663
         3241.995       0.0133492
         3244.591      0.01330335
         3247.188       0.0132573
         3249.791      0.01321102
         3252.391      0.01315387
         3254.999      0.01309541
         3257.605      0.01303679
         3260.214      0.01297837
         3262.824       0.0129247
         3265.439      0.01287077
         3268.053      0.01281665
         3270.672      0.01276007
         3273.291       0.0126969
         3275.912      0.01263347
         3278.535      0.01256978
          3281.16      0.01251063
          3283.79      0.01245727
         3286.421      0.01240369
         3289.052      0.01234993
         3291.686      0.01229025
         3294.323      0.01222708
         3296.959      0.01216373
         3299.601      0.01210003
         3302.243       0.0120408
         3304.889       0.0119821
         3307.536      0.01192321
         3310.184      0.01186334
         3312.835      0.01179345
         3315.489      0.01172322
         3318.144      0.01165277
         3320.803      0.01158491
          3323.46      0.01152368
         3326.123      0.01146212
         3328.786      0.01140034
         3331.454      0.01133261
         3334.123      0.01125986
         3336.793      0.01118688
         3339.465      0.01111359
         3342.139      0.01105147
         3344.815      0.01099198
         3347.497      0.01093214
         3350.174      0.01087154
          3352.86      0.01080052
         3355.545      0.01072931
         3358.232       0.0106578
         3360.923      0.01058831
         3363.614       0.0105231
         3366.309      0.01045758
         3369.003      0.01039188
         3371.702      0.01032139
         3374.402      0.01024808
         3377.104      0.01017445
          3379.81      0.01010048
         3382.518      0.01004201
         3385.225     0.009984569
         3387.937     0.009926811
          3390.65     0.009859339
         3393.367     0.009761285
         3396.082     0.009662977
         3398.805     0.009564072
         3401.527      0.00948312
          3404.25     0.009416117
         3406.977     0.009348832
         3409.707     0.009281227
         3412.435     0.009217742
         3415.171     0.009154382
         3417.904     0.009090885
         3420.643     0.009025889
         3423.382     0.008956905
         3426.125     0.008887593
         3428.868      0.00881804
         3431.614     0.008751826
         3434.363     0.008687846
         3437.113     0.008623647
         3439.865     0.008559177
         3442.622     0.008490505
         3445.376     0.008421445
         3448.137     0.008352003
           3450.9     0.008284812
         3453.663     0.008222647
         3456.429     0.008160215
         3459.197     0.008097528
          3461.97     0.008032087
          3464.74     0.007965522
         3467.517     0.007898593
         3470.293     0.007832264
         3473.072     0.007772746
         3475.853     0.007712977
         3478.636     0.007652957
         3481.424     0.007590108
         3484.213     0.007524559
         3487.001     0.007458821
         3489.797     0.007392674
          3492.59     0.007334074
         3495.388     0.007275746
         3498.187     0.007217211
          3500.99      0.00715669
         3503.793     0.007092831
         3506.599     0.007028702
         3509.407     0.006964302
         3512.221      0.00690644
         3515.029     0.006850328
         3517.848     0.006793816
         3520.665     0.006735866
         3523.484     0.006673503
         3526.305     0.006610881
         3529.131     0.006547949
         3531.958     0.006490714
         3534.787     0.006435925
         3537.617     0.006380894
          3540.45     0.006324826
         3543.285     0.006264248
         3546.124     0.006203369
         3548.963     0.006142266
         3551.805      0.00608697
         3554.651     0.006034889
         3557.498     0.005982614
         3560.348      0.00592953
         3563.197     0.005872346
         3566.054     0.005814796
         3568.909     0.005757074
         3571.767      0.00570282
         3574.627     0.005650642
          3577.49     0.005598231
         3580.354     0.005545266
         3583.225       0.0054897
         3586.094      0.00543397
         3588.968     0.005377954
          3591.84     0.005325503
         3594.719     0.005274817
         3597.596     0.005224008
         3600.479     0.005172275
         3603.362     0.005117175
         3606.247     0.005061836
         3609.135      0.00500625
         3612.025     0.004955354
         3614.919     0.004906311
         3617.815     0.004857052
          3620.71     0.004806846
         3623.612     0.004753901
         3626.513     0.004700753
         3629.417     0.004647374
         3632.327     0.004598723
         3635.232     0.004551249
         3638.146     0.004503438
          3641.06     0.004454345
         3643.975     0.004403041
         3646.895     0.004351474
         3649.813     0.004299754
          3652.74     0.004252962
         3655.665     0.004206386
         3658.592     0.004159603
         3661.521     0.004111107
         3664.453     0.004061006
         3667.392     0.004010615
         3670.326     0.003960699
         3673.267     0.003915268
         3676.208     0.003869665
         3679.152     0.003823862
           3682.1     0.003776378
         3685.051     0.003728098
         3687.999     0.003679672
         3690.954     0.003632826
          3693.91     0.003589707
         3696.868     0.003546399
         3699.828     0.003502898
          3702.79     0.003457189
          3705.76     0.003411086
         3708.723     0.003364911
         3711.697     0.003320035
         3714.668     0.003276255
         3717.643     0.003232279
          3720.62     0.003187845
         3723.601     0.003142174
         3726.585     0.003096302
         3729.569     0.003050262
         3732.555     0.003006485
         3735.546     0.002962909
         3738.535       0.0029192
         3741.533     0.002874699
         3744.527     0.002829612
         3747.527     0.002784264
         3750.528     0.002739217
         3753.531     0.002696165
         3756.539     0.002652897
         3759.547     0.002609467
         3762.559     0.002564357
         3765.572     0.002518824
         3768.587     0.002473091
         3771.605     0.002428601
         3774.625     0.002385187
         3777.651     0.002341525
         3780.676     0.002297572
         3783.704     0.002252871
         3786.733     0.002207981
         3789.765     0.002162894
         3792.802     0.002119435
         3795.839     0.002075974
         3798.881     0.002032299
         3801.923      0.00198804
         3804.967     0.001943348
         3808.014      0.00189846
         3811.065     0.001843217
         3814.116     0.001768845
         3817.173     0.001694109
         3820.227     0.001619161
         3823.288     0.001543778
          3826.35     0.001468142
         3829.416     0.001392138
         3832.484     0.001349871
         3835.553     0.001315483
         3838.624     0.001280954
         3841.698     0.001244353
         3844.774     0.001206036
         3847.857     0.001167504
         3850.934     0.001130912
         3854.021     0.001098668
         3857.108      0.00106633
         3860.196     0.001033664
         3863.289     9.979437E-4
         3866.383     9.620981E-4
         3869.481     9.260793E-4
         3872.577     8.953003E-4
          3875.68     8.654302E-4
         3878.783     8.354555E-4
         3881.889     8.038146E-4
            3885.     7.710214E-4
         3888.113     7.380940E-4
         3891.224     7.077730E-4
         3894.342     6.814556E-4
          3897.46     6.550471E-4
         3900.583     6.282081E-4
         3903.704     5.999714E-4
         3906.834     5.715608E-4
         3909.963     5.430734E-4
         3913.094     5.203736E-4
         3916.227     4.976499E-4
         3919.365     4.748204E-4
         3922.501     4.513351E-4
         3925.646     4.275565E-4
         3928.788     4.037297E-4
         3931.936     3.832998E-4
         3935.084     3.650120E-4
         3938.237     3.466388E-4
         3941.391     3.281675E-4
         3944.547     3.095775E-4
         3947.707     2.909014E-4
         3950.868     2.734320E-4
         3954.032     2.592498E-4
           3957.2     2.450021E-4
         3960.367     2.307498E-4
          3963.54     2.166712E-4
         3966.716     2.025371E-4
         3969.892     1.883583E-4
         3973.071     1.778588E-4
         3976.252     1.674492E-4
         3979.441     1.569850E-4
         3982.625     1.468347E-4
         3985.816     1.367028E-4
         3989.008     1.265385E-4
         3992.202     1.183230E-4
         3995.399     1.109735E-4
           3998.6     1.035912E-4
         4001.802     9.634095E-5
         4005.009     8.919641E-5
         4008.213     8.205883E-5
         4011.427     7.583721E-5
         4014.637     7.079367E-5
         4017.854     6.574103E-5
         4021.071     6.082661E-5
         4024.293     5.618243E-5
         4027.515     5.153918E-5
          4030.74     4.721517E-5
         4033.968     4.396872E-5
         4037.202     4.071665E-5
         4040.431     3.751665E-5
          4043.67     3.459785E-5
         4046.908     3.168180E-5
         4050.149     2.880661E-5
         4053.392     2.679929E-5
          4056.64     2.478998E-5
          4059.89     2.277992E-5
         4063.141     2.100030E-5
         4066.395     1.922821E-5
         4069.651     1.745551E-5
          4072.91     1.619668E-5
         4076.173     1.499849E-5
         4079.437     1.380074E-5
         4082.704     1.271783E-5
         4085.975     1.165797E-5
         4089.247     1.059846E-5
         4092.523     9.799230E-6
         4095.798     9.078812E-6
         4099.082     8.356749E-6
         4102.365     7.707166E-6
         4105.649     7.085466E-6
         4108.937     6.463586E-6
         4112.227     5.963449E-6
          4115.52     5.521358E-6
          4118.82     5.078619E-6
         4122.118     4.674928E-6
         4125.418     4.292617E-6
         4128.722     3.910221E-6
          4132.03     3.613787E-6
         4135.339     3.371761E-6
         4138.652     3.129541E-6
         4141.966     2.899362E-6
         4145.283     2.677304E-6
         4148.602     2.455267E-6
         4151.924     2.268076E-6
         4155.251     2.106166E-6
         4158.578     1.944350E-6
         4161.908     1.817130E-6
         4165.243     1.715643E-6
         4168.578     1.614229E-6
         4171.916     1.501215E-6
         4175.261     1.379427E-6
           4178.6     1.257963E-6
         4181.951     1.171477E-6
         4185.299     1.110424E-6
          4188.65     1.049373E-6
         4192.004     9.762294E-7
         4195.361     8.949383E-7
         4198.725     8.135476E-7
         4202.087     7.579516E-7
         4205.452     7.179805E-7
         4208.822     6.778871E-7
         4212.189     6.377527E-7
         4215.567     5.974370E-7
          4218.94     5.571039E-7
         4222.321     5.166201E-7
         4225.702     4.760650E-7
         4229.085     4.354111E-7
         4232.474     4.096438E-7
         4235.863     3.893853E-7
         4239.255     3.690804E-7
         4242.652     3.487081E-7
         4246.049     3.283033E-7
         4249.449     3.078493E-7
         4252.852     2.873458E-7
         4256.259     2.667811E-7
         4259.667     2.461819E-7
         4263.078     2.443360E-7
         4266.494     2.445197E-7
         4269.911     2.447034E-7
          4273.33     2.245029E-7
         4276.754     2.036916E-7
         4280.178     1.839415E-7
         4283.608     1.840776E-7
         4287.038     1.842137E-7
         4290.471     1.843499E-7
         4293.909     1.844861E-7
         4297.344     1.846222E-7
          4300.79     1.798927E-7
         4304.234     1.587988E-7
         4307.681     1.376561E-7
          4311.13     1.234411E-7
         4314.582     1.235308E-7
         4318.039     1.236206E-7
         4321.497     1.237104E-7
         4324.959     1.238003E-7
         4328.422     1.238902E-7
         4331.889     1.239801E-7
         4335.359     1.240700E-7
         4338.829     1.241599E-7
         4342.305     1.242490E-7
         4345.785     1.243378E-7
         4349.265     1.244266E-7
         4352.747     1.245143E-7
         4356.232     1.246018E-7
         4359.723     1.246895E-7
         4363.216     1.247782E-7
         4366.708     1.248671E-7
         4370.207     1.249560E-7
         4373.706     1.250437E-7
         4377.208     1.251314E-7
         4380.716     1.252193E-7
         4384.223     1.253071E-7
         4387.736     1.253950E-7
          4391.25     1.254824E-7
         4394.766     1.255690E-7
         4398.288     1.256557E-7
         4401.809     1.257430E-7
         4405.336     1.258311E-7
         4408.864     1.259191E-7
         4412.394     1.260063E-7
         4415.927     1.260931E-7
         4419.463     1.261800E-7
         4423.004     1.262669E-7
         4426.544     1.263539E-7
         4430.093     1.264411E-7
          4433.64     1.265267E-7
          4437.19     1.266124E-7
         4440.746     1.266985E-7
         4444.299     1.267855E-7
          4447.86     1.268728E-7
         4451.424     1.269595E-7
         4454.989     1.270454E-7
         4458.556     1.271314E-7
         4462.126     1.272173E-7
         4465.702     1.273034E-7
          4469.28     1.273896E-7
         4472.859     1.274758E-7
          4476.44     1.275619E-7
         4480.024     1.276482E-7
         4483.614     1.277346E-7
         4487.205     1.278209E-7
           4490.8     1.279074E-7
         4494.396     1.279938E-7
         4497.995     1.280803E-7
         4501.597     1.283293E-7
         4505.201     1.287825E-7
         4508.809     1.292363E-7
         4512.424     1.296902E-7
         4516.037     1.301434E-7
         4519.653     1.305972E-7
         4523.272     1.310525E-7
         4526.894     1.315084E-7
         4530.521     1.319649E-7
         4534.147     1.324200E-7
         4537.782     1.328765E-7
         4541.416     1.333328E-7
         4545.052     1.337895E-7
         4548.694     1.342470E-7
         4552.334     1.347052E-7
         4555.984     1.351653E-7
         4559.632     1.356252E-7
         4563.283     1.360842E-7
         4566.938     1.365437E-7
         4570.594     1.370035E-7
         4574.259     1.374643E-7
         4577.922     1.379249E-7
         4581.587     1.383860E-7
         4585.256     1.388476E-7
         4588.928     1.393095E-7
         4592.604     1.397722E-7
         4596.282     1.402351E-7
         4599.965     1.406988E-7
         4603.648     1.411625E-7
         4607.334     1.416267E-7
         4611.024     1.420914E-7
         4614.716     1.425565E-7
         4618.411     1.430220E-7
         4622.112     1.434875E-7
         4625.813     1.439523E-7
          4629.52     1.444179E-7
         4633.227     1.215110E-7
         4636.937     9.494062E-8
         4640.649     7.291050E-8
         4644.365     7.314483E-8
         4648.089     7.337972E-8
         4651.812     7.361452E-8
         4655.536     7.384948E-8
         4659.264     7.408469E-8
         4662.995     7.431944E-8
         4666.734     7.455463E-8
         4670.468     7.478963E-8
          4674.21     7.502592E-8
         4677.953     7.526228E-8
         4681.699     7.549885E-8
         4685.453     7.573595E-8
         4689.202     7.597286E-8
         4692.959     7.620959E-8
         4696.717     7.644620E-8
         4700.478     7.668314E-8
         4704.242     7.692104E-8
         4708.009     7.715921E-8
         4711.784     7.739752E-8
         4715.557     7.763528E-8
         4719.333     7.787329E-8
         4723.111     7.811216E-8
         4726.894     7.835145E-8
         4730.678     7.859078E-8
         4734.469     7.882982E-8
         4738.263     7.906910E-8
         4742.057     7.930890E-8
         4745.854     7.954937E-8
         4749.654     7.979001E-8
          4753.46     8.003026E-8
         4757.266     8.027045E-8
         4761.078     8.051131E-8
          4764.89     8.075286E-8
         4768.706     8.099466E-8
         4772.524     8.123671E-8
         4776.348     8.147920E-8
         4780.175     8.172187E-8
            4784.     8.196351E-8
         4787.834     8.220573E-8
         4791.667     8.244838E-8
         4795.504     8.269184E-8
          4799.35     8.293587E-8
          4803.19     8.317957E-8
         4807.039     8.342386E-8
         4810.888     7.624085E-8
          4814.74     4.413558E-8
         4818.595     1.182205E-8
         4822.454     2.070856E-8
          4826.32     5.349886E-8
         4830.185     8.332048E-8
         4834.053     5.063336E-8
         4837.923     1.773119E-8
         4841.797              0.
         4845.677              0.
         4849.557              0.
         4853.443              0.
          4857.33              0.
         4861.219              0.
         4865.114              0.
          4869.01              0.
         4872.908              0.
         4876.813              0.
         4880.718              0.
         4884.626              0.
         4888.538              0.
         4892.455              0.
         4896.375              0.
         4900.293              0.
         4904.219              0.
         4908.146              0.
         4912.079              0.
          4916.01              0.
         4919.949              0.
         4923.891              0.
         4927.833              0.
         4931.779              0.
         4935.731              0.
         4939.681              0.
         4943.636              0.
         4947.597              0.
         4951.562              0.
         4955.527              0.
         4959.495              0.
         4963.469              0.
         4967.446              0.
         4971.421              0.
         4975.404              0.
         4979.388              0.
         4983.375              0.
         4987.368              0.
         4991.365              0.
         4995.359              0.
         4999.361              0.
         5003.364              0.
         5007.371              0.
         5011.383              0.
         5015.399              0.
         5019.415              0.
         5023.434              0.
         5027.457              0.
         5031.482              0.
         5035.514              0.
         5039.548              0.
         5043.584              0.
         5047.623              0.
         5051.664              0.
         5055.709              0.
          5059.76              0.
         5063.814              0.
         5067.869              0.
         5071.927              0.
         5075.988              0.
         5080.053              0.
         5084.121              0.
         5088.195              0.
         5092.271              0.
         5096.349              0.
          5100.43     1.412071E-9
         5104.514     1.486297E-8
         5108.602     2.840674E-8
         5112.695     3.300912E-8
         5116.792     3.293201E-8
         5120.889     3.285386E-8
         5124.989     3.277460E-8
         5129.096     3.269420E-8
           5133.2     3.261243E-8
         5137.313     3.252934E-8
          5141.43     3.244529E-8
         5145.546     3.236045E-8
         5149.667     3.227449E-8
         5153.793     3.218730E-8
         5157.917     3.209910E-8
          5162.05     3.200965E-8
         5166.186     3.191907E-8
         5170.323     3.182742E-8
         5174.463     3.173458E-8
         5178.606     3.164059E-8
         5182.756     3.154515E-8
         5186.906     3.144851E-8
         5191.059     3.135078E-8
         5195.219     3.125208E-8
         5199.378     3.115229E-8
         5203.542     3.118869E-8
         5207.711     3.124907E-8
         5211.884     3.130948E-8
         5216.055     3.136988E-8
         5220.234     3.143023E-8
         5224.414     3.149013E-8
         5228.598     3.154993E-8
         5232.787     3.160962E-8
          5236.98     3.166918E-8
         5241.173     3.172861E-8
          5245.37     3.178796E-8
          5249.57     3.184719E-8
         5253.774     3.190668E-8
         5257.984     3.196615E-8
         5262.197     3.202505E-8
         5266.411     3.208338E-8
         5270.627     3.214168E-8
         5274.848     3.220024E-8
         5279.071     3.225870E-8
         5283.302     3.231706E-8
         5287.535     3.237529E-8
         5291.769     3.243321E-8
         5296.006     3.249080E-8
         5300.247     3.254031E-8
         5304.491     3.246023E-8
         5308.738     3.237917E-8
         5312.992     3.229736E-8
          5317.25     3.221469E-8
         5321.507     3.213080E-8
         5325.768     3.204537E-8
         5330.033     3.195895E-8
         5334.301     3.187193E-8
         5338.575     3.178387E-8
         5342.853     3.169480E-8
         5347.131     3.160478E-8
         5351.413     3.151363E-8
         5355.697     3.142120E-8
         5359.986     3.132775E-8
         5364.281     3.123322E-8
         5368.579     3.113767E-8
         5372.878     3.104092E-8
          5377.18     3.094302E-8
         5381.489     3.084416E-8
         5385.795     3.074468E-8
          5390.11     3.064402E-8
         5394.429     3.054193E-8
         5398.749     3.043887E-8
         5403.072     3.035861E-8
         5407.398     3.028720E-8
         5411.731     3.021493E-8
         5416.064     3.014191E-8
         5420.404     3.006796E-8
         5424.745     2.999280E-8
         5429.088     2.991681E-8
         5433.436     2.983996E-8
         5437.789     2.976223E-8
         5442.141     2.968374E-8
         5446.501     2.960430E-8
         5450.865     2.952392E-8
          5455.23     2.944242E-8
         5459.598     2.936007E-8
         5463.973     2.927683E-8
         5468.351     2.919274E-8
         5472.727     2.910767E-8
         5477.112     2.902148E-8
         5481.498     2.893448E-8
         5485.887     2.884658E-8
         5490.283     2.875776E-8
         5494.682     2.866808E-8
         5499.082     2.857759E-8
         5503.485     2.848960E-8
         5507.892     2.840170E-8
         5512.302     2.831296E-8
         5516.719     2.822334E-8
          5521.14     2.813293E-8
         5525.561     2.804184E-8
         5529.985     2.794995E-8
         5534.413     2.785686E-8
         5538.844     2.776300E-8
          5543.28     2.766803E-8
         5547.721     2.757213E-8
         5552.167     2.747555E-8
         5556.612     2.737838E-8
         5561.062     2.728033E-8
         5565.515     2.718124E-8
         5569.971     2.708133E-8
         5574.434     2.698057E-8
         5578.901     2.687898E-8
         5583.368     2.677636E-8
         5587.839     2.667285E-8
         5592.313     2.656848E-8
         5596.792     2.646328E-8
         5601.276     2.635000E-8
         5605.764     2.621797E-8
         5610.253     2.608552E-8
         5614.745     2.595257E-8
         5619.241     2.581910E-8
         5623.741     2.568483E-8
         5628.247     2.554990E-8
         5632.756     2.541440E-8
         5637.267     2.527843E-8
         5641.781     2.514198E-8
         5646.301     2.500496E-8
         5650.819     2.486761E-8
         5655.347     2.472954E-8
         5659.879     2.459095E-8
         5664.411     2.445187E-8
         5668.947     2.431227E-8
         5673.489     2.417183E-8
         5678.035     2.403082E-8
         5682.576     2.388957E-8
         5687.129     2.374753E-8
         5691.686     2.360495E-8
         5696.243     2.346194E-8
         5700.805     2.331839E-8
         5705.373     2.317417E-8
         5709.938     2.302963E-8
         5714.513     2.288442E-8
         5719.092     2.273870E-8
         5723.671     2.259252E-8
         5728.254     2.244582E-8
         5732.845     2.229848E-8
         5737.438     2.215064E-8
         5742.029     2.200229E-8
          5746.63     2.185301E-8
         5751.231     2.170339E-8
         5755.837     2.155349E-8
         5760.449     2.140298E-8
         5765.064     2.125193E-8
         5769.681     2.110046E-8
         5774.301     2.094815E-8
         5778.924     2.079531E-8
         5783.552     2.064209E-8
         5788.186     2.048828E-8
         5792.824     2.033380E-8
         5797.462     2.017882E-8
         5802.105     2.008829E-8
          5806.75     2.007593E-8
           5811.4     2.006339E-8
         5816.057     2.005051E-8
         5820.717     2.003757E-8
         5825.378     2.002478E-8
         5830.042     2.001188E-8
         5834.711     1.999865E-8
         5839.383     1.998532E-8
         5844.059     1.997206E-8
         5848.742     1.995873E-8
         5853.428     1.994505E-8
         5858.115     1.993119E-8
         5862.806     1.991739E-8
           5867.5     1.990361E-8
         5872.199     1.988971E-8
         5876.904     1.987568E-8
         5881.613     1.986154E-8
         5886.323     1.984729E-8
         5891.036     1.983295E-8
         5895.756     1.981847E-8
         5900.474     1.980645E-8
         5905.202     1.981703E-8
         5909.934     1.982758E-8
         5914.666     1.983835E-8
         5919.402     1.984909E-8
         5924.145     1.985954E-8
         5928.885     1.986991E-8
         5933.636     1.988046E-8
         5938.391     1.989104E-8
         5943.146     1.990157E-8
         5947.905     1.991206E-8
         5952.667     1.992251E-8
         5957.437     1.993292E-8
         5962.208     1.994341E-8
         5966.981     1.995403E-8
         5971.763     1.996449E-8
         5976.544     1.997472E-8
          5981.33     1.998502E-8
         5986.123     1.999553E-8
         5990.919     2.000600E-8
         5995.713     2.001633E-8
         6000.518     2.001844E-8
         6005.322     1.995262E-8
         6010.131     1.988672E-8
         6014.947     1.982095E-8
         6019.767     1.975511E-8
         6024.583     1.968928E-8
         6029.411     1.962328E-8
         6034.239     1.955722E-8
          6039.07     1.949108E-8
          6043.91     1.942480E-8
         6048.752     1.935844E-8
         6053.596     1.929225E-8
         6058.443     1.922605E-8
         6063.294     1.915951E-8
         6068.149     1.909278E-8
         6073.012     1.902614E-8
         6077.878     1.895956E-8
         6082.745     1.889293E-8
         6087.615     1.882621E-8
          6092.49     1.875940E-8
         6097.368     1.869252E-8
          6102.25     1.864265E-8
          6107.14     1.861268E-8
         6112.034     1.858264E-8
         6116.928     1.855252E-8
         6121.826     1.852240E-8
         6126.728     1.849228E-8
         6131.634     1.846208E-8
         6136.547     1.843176E-8
         6141.464     1.840151E-8
         6146.381     1.837149E-8
         6151.303     1.834133E-8
         6156.229     1.831085E-8
         6161.158     1.828035E-8
         6166.095     1.824985E-8
         6171.036     1.821930E-8
         6175.977     1.818865E-8
         6180.922     1.815798E-8
         6185.875     1.812730E-8
         6190.825     1.809661E-8
         6195.786     1.806576E-8
          6200.75     1.804039E-8
         6205.715     1.804597E-8
         6210.685     1.805150E-8
         6215.657     1.805671E-8
         6220.635     1.806197E-8
         6225.619     1.806754E-8
         6230.607     1.807305E-8
         6235.597     1.807824E-8
         6240.589     1.808346E-8
         6245.586     1.808900E-8
         6250.591     1.809450E-8
         6255.593     1.809968E-8
         6260.605     1.810483E-8
         6265.622     1.810980E-8
         6270.639     1.811478E-8
          6275.66     1.811993E-8
         6280.688     1.812505E-8
         6285.721     1.813001E-8
         6290.751     1.813495E-8
         6295.792     1.813981E-8
         6300.833     1.813898E-8
         6305.878     1.810937E-8
         6310.931     1.807964E-8
         6315.987     1.804959E-8
         6321.045     1.801955E-8
         6326.106     1.798952E-8
         6331.172     1.795945E-8
         6336.242     1.792926E-8
         6341.319     1.789898E-8
           6346.4     1.786851E-8
         6351.481     1.783801E-8
         6356.567     1.780742E-8
         6361.657     1.777673E-8
         6366.751     1.774587E-8
         6371.849     1.771496E-8
         6376.955     1.768394E-8
         6382.065     1.765292E-8
         6387.175     1.762193E-8
          6392.29     1.759075E-8
         6397.408     1.755934E-8
         6402.531     1.767198E-8
         6407.661     1.793255E-8
         6412.795     1.819329E-8
          6417.93     1.845402E-8
         6423.069     1.871476E-8
         6428.212     1.897555E-8
         6433.359     1.923650E-8
         6438.515     1.949785E-8
         6443.673     1.975918E-8
         6448.833     2.002047E-8
         6453.997     2.028188E-8
         6459.165     2.054344E-8
         6464.337     2.080461E-8
         6469.517     2.106602E-8
         6474.701     2.132760E-8
         6479.885     2.158914E-8
         6485.074     2.185088E-8
          6490.27     2.211294E-8
         6495.463     2.237406E-8
         6500.668     2.321063E-8
         6505.877     2.794462E-8
         6511.086     3.266619E-8
           6516.3     3.737798E-8
         6521.521     4.208282E-8
         6526.747     4.677766E-8
         6531.966     5.145301E-8
           6537.2     5.612740E-8
         6542.438     6.079198E-8
         6547.677     6.544278E-8
          6552.92     7.008369E-8
          6558.17     7.471677E-8
         6563.418     7.933385E-8
         6568.678     8.394689E-8
         6573.941     8.854734E-8
         6579.205     9.313369E-8
         6584.473     1.200320E-7
         6589.749     1.508559E-7
         6595.029     1.520996E-7
         6600.307     1.518684E-7
         6605.595     1.516346E-7
         6610.885     1.514004E-7
         6616.178     1.511642E-7
         6621.479     1.732582E-7
         6626.785     2.529434E-7
         6632.091     3.009180E-7
         6637.402     3.004408E-7
         6642.717     3.407134E-7
         6648.036     4.198250E-7
         6653.363     4.987988E-7
         6658.694     5.775688E-7
         6664.026     6.561053E-7
         6669.358     7.343976E-7
         6674.702     8.824392E-7
         6680.047     1.039540E-6
         6685.399     1.196357E-6
         6690.753     1.352684E-6
         6696.114     1.508689E-6
         6701.476     1.685943E-6
         6706.842     1.919963E-6
         6712.212     2.153372E-6
         6717.587     2.386212E-6
          6722.97     2.618611E-6
         6728.356     2.850396E-6
         6733.744     3.190643E-6
         6739.136     3.577904E-6
         6744.532     3.898240E-6
         6749.933     4.205190E-6
         6755.341     4.666349E-6
         6760.754     5.117325E-6
         6766.168     5.499436E-6
         6771.586     5.926277E-6
         6777.008     6.462391E-6
         6782.435     6.962106E-6
         6787.869     7.417756E-6
         6793.308     7.966902E-6
         6798.748     8.575135E-6
         6804.192     9.121866E-6
         6809.644     9.649633E-6
         6815.093     1.032002E-5
         6820.554     1.099181E-5
         6826.015     1.159175E-5
         6831.484     1.223239E-5
         6836.955     1.298342E-5
         6842.433     1.369860E-5
         6847.912     1.436843E-5
         6853.396     1.508409E-5
         6858.883     1.582704E-5
         6864.379     1.650687E-5
         6869.875     1.716866E-5
          6875.38     1.797942E-5
         6880.886     1.877845E-5
         6886.392     1.951045E-5
          6891.91     2.026787E-5
         6897.432     2.107306E-5
         6902.955     2.175278E-5
         6908.482     2.232388E-5
         6914.018     2.306001E-5
         6919.558     2.385673E-5
         6925.095     2.451020E-5
         6930.644     2.515943E-5
         6936.193     2.587374E-5
         6941.748     2.653816E-5
          6947.31     2.709682E-5
         6952.876     2.769297E-5
         6958.444     2.832342E-5
         6964.016     2.889793E-5
         6969.592     2.944979E-5
         6975.173     2.993014E-5
         6980.762     3.039355E-5
         6986.352     3.079030E-5
          6991.95     3.121225E-5
         6997.548     3.168149E-5
         7003.151     3.209185E-5
         7008.759     3.245571E-5
         7014.375     3.275922E-5
         7019.992     3.304425E-5
         7025.617     3.332848E-5
         7031.242     3.362741E-5
         7036.873     3.398297E-5
         7042.507     3.427050E-5
          7048.15     3.447424E-5
         7053.794     3.467703E-5
         7059.446     3.487891E-5
         7065.099     3.507944E-5
         7070.756     3.527871E-5
         7076.417     3.547679E-5
         7082.084     3.564678E-5
         7087.759     3.576969E-5
         7093.438     3.589207E-5
         7099.118     3.601373E-5
         7104.803     3.613454E-5
         7110.496     3.624190E-5
         7116.185     3.621659E-5
         7121.887     3.623875E-5
          7127.59     3.635673E-5
         7133.301     3.634969E-5
         7139.013     3.625189E-5
         7144.733     3.627209E-5
          7150.45     3.630512E-5
          7156.18     3.620697E-5
          7161.91     3.610899E-5
         7167.649     3.601108E-5
         7173.388     3.587190E-5
         7179.136     3.570419E-5
         7184.885     3.559649E-5
         7190.638     3.549168E-5
         7196.396     3.532511E-5
         7202.162     3.515884E-5
         7207.929     3.499313E-5
         7213.701     3.482786E-5
         7219.481     3.466291E-5
         7225.266     3.443560E-5
         7231.047     3.421558E-5
         7236.841     3.405228E-5
         7242.636     3.385831E-5
         7248.436     3.362762E-5
         7254.244     3.339751E-5
         7260.056     3.316748E-5
         7265.866     3.287057E-5
         7271.688     3.257451E-5
          7277.51     3.228015E-5
         7283.337     3.202564E-5
         7289.173     3.180070E-5
          7295.01     3.157718E-5
         7300.855     3.133444E-5
         7306.698     3.097727E-5
         7312.552     3.068027E-5
         7318.408     3.046101E-5
         7324.272     3.029101E-5
         7330.137     3.013502E-5
          7336.01     2.978325E-5
         7341.884     2.945456E-5
         7347.763     2.917253E-5
         7353.646     2.893287E-5
         7359.539     2.871918E-5
         7365.432     2.832322E-5
         7371.334     2.795790E-5
         7377.236     2.774752E-5
         7383.144     2.746787E-5
         7389.056     2.712784E-5
         7394.972     2.689974E-5
         7400.897     2.668338E-5
         7406.828     2.641258E-5
         7412.759     2.617315E-5
         7418.694     2.596928E-5
         7424.635     2.566489E-5
          7430.58     2.533962E-5
         7436.534     2.507442E-5
         7442.488     2.481022E-5
         7448.452     2.454657E-5
         7454.416     2.433224E-5
         7460.389     2.413114E-5
         7466.359     2.387105E-5
         7472.342     2.361161E-5
         7478.325     2.335339E-5
         7484.317     2.309598E-5
          7490.31     2.283979E-5
         7496.312     2.258484E-5
         7502.311     2.233176E-5
         7508.322     2.208018E-5
         7514.334     2.182972E-5
         7520.355     2.158376E-5
         7526.377     2.139812E-5
         7532.408     2.118791E-5
         7538.439     2.094097E-5
         7544.471     2.078779E-5
         7550.517     2.065122E-5
         7556.566     2.034402E-5
         7562.617     2.006515E-5
         7568.673     1.982259E-5
         7574.738     1.958083E-5
         7580.807     1.936470E-5
         7586.873     1.931006E-5
         7592.952     1.916563E-5
         7599.032     1.892696E-5
         7605.117     1.874079E-5
         7611.211     1.855277E-5
          7617.31     1.831648E-5
         7623.409     1.811536E-5
         7629.509     1.794197E-5
         7635.623     1.771316E-5
         7641.736     1.751495E-5
          7647.86     1.740398E-5
         7653.988     1.721482E-5
         7660.117     1.698677E-5
         7666.246     1.687757E-5
         7672.389     1.672191E-5
         7678.532     1.649386E-5
         7684.685     1.635753E-5
         7690.838     1.624209E-5
         7697.001     1.607559E-5
         7703.164     1.590987E-5
         7709.333     1.574478E-5
         7715.505     1.558036E-5
         7721.684     1.543262E-5
         7727.871     1.532816E-5
         7734.063     1.518551E-5
         7740.256     1.502338E-5
         7746.454     1.486193E-5
         7752.657     1.472607E-5
         7758.864     1.462398E-5
         7765.082     1.447470E-5
         7771.304     1.432758E-5
         7777.526     1.422681E-5
         7783.754     1.412640E-5
         7789.987     1.402633E-5
         7796.224     1.381209E-5
         7802.471     1.364373E-5
         7808.723     1.354520E-5
         7814.976     1.344707E-5
         7821.234     1.333808E-5
           7827.5     1.318386E-5
         7833.764     1.309849E-5
         7840.041     1.305766E-5
         7846.319     1.290494E-5
         7852.606     1.277609E-5
         7858.894     1.268068E-5
         7865.191     1.258559E-5
         7871.489     1.249090E-5
         7877.792     1.239655E-5
           7884.1     1.230257E-5
         7890.417     1.220886E-5
         7896.735     1.211559E-5
         7903.063     1.199585E-5
         7909.391     1.184827E-5
          7915.72     1.175108E-5
         7922.063     1.167725E-5
         7928.411     1.164060E-5
         7934.759     1.156314E-5
         7941.113     1.147232E-5
         7947.476     1.138180E-5
         7953.844     1.129163E-5
         7960.208     1.120370E-5
         7966.587     1.116820E-5
         7972.966     1.110776E-5
          7979.35     1.101878E-5
         7985.744     1.093012E-5
         7992.143     1.067883E-5
         7998.542     1.010622E-5
         8004.947     9.929804E-6
         8011.357     9.869734E-6
         8017.772     9.809807E-6
         8024.196     9.750062E-6
         8030.622     9.690551E-6
         8037.056     9.631187E-6
         8043.487     9.572080E-6
         8049.933     9.513068E-6
         8056.378     9.454238E-6
         8062.833     9.395569E-6
          8069.29     9.337141E-6
         8075.756     9.278864E-6
         8082.222     9.220805E-6
         8088.694     9.162927E-6
         8095.171     9.105232E-6
         8101.657     9.051545E-6
         8108.145     9.009267E-6
         8114.642     8.967046E-6
         8121.139     8.924903E-6
         8127.642     8.882774E-6
          8134.15     8.840723E-6
         8140.663     8.798733E-6
         8147.186     8.756771E-6
         8153.714     8.714828E-6
         8160.243     8.672939E-6
         8166.777     8.631153E-6
         8173.317     8.589393E-6
         8179.861     8.547655E-6
         8186.416     8.505991E-6
         8192.971     8.464406E-6
         8199.536     8.422832E-6
         8206.102     8.386493E-6
         8212.677     8.350535E-6
         8219.249     8.314650E-6
         8225.835     8.278679E-6
         8232.421     8.242749E-6
         8239.018     8.206816E-6
         8245.615     8.170869E-6
         8252.222     8.134906E-6
          8258.83     8.098996E-6
         8265.443     8.063053E-6
         8272.062     8.027116E-6
         8278.689     7.991185E-6
         8285.318     7.955251E-6
         8291.953     7.919313E-6
         8298.597     7.883388E-6
         8305.247     7.847428E-6
         8311.893     7.811524E-6
         8318.553     7.775605E-6
         8325.214     7.739679E-6
          8331.88     7.703758E-6
         8338.556     7.667852E-6
         8345.237     7.631914E-6
         8351.915     7.603438E-6
         8358.607     7.593346E-6
         8365.301     7.583096E-6
         8371.999     7.572718E-6
         8378.707     7.562228E-6
         8385.416     7.551582E-6
         8392.135     7.540802E-6
         8398.851     7.529929E-6
          8405.58     7.516223E-6
         8412.311     7.501859E-6
         8419.052     7.487389E-6
         8425.793     7.472770E-6
         8432.544     7.458012E-6
         8439.297     7.443134E-6
         8446.054     7.428136E-6
         8452.817     7.413024E-6
          8459.59     7.397800E-6
         8466.364     7.382419E-6
         8473.148     7.366899E-6
         8479.933     7.351261E-6
         8486.723     7.335537E-6
         8493.519     7.319657E-6
         8500.319     7.303321E-6
         8507.131     7.280627E-6
         8513.947     7.257843E-6
         8520.765     7.234970E-6
         8527.588     7.211945E-6
         8534.416     7.188829E-6
          8541.25     7.165603E-6
         8548.094     7.142213E-6
         8554.938     7.118722E-6
         8561.793     7.095107E-6
         8568.649     7.071417E-6
         8575.515     7.047565E-6
         8582.377     7.023631E-6
         8589.254     6.999570E-6
         8596.132     6.975372E-6
          8603.02     6.953548E-6
         8609.908     6.934818E-6
         8616.807     6.915962E-6
         8623.702     6.896953E-6
         8630.612     6.877750E-6
         8637.522     6.858445E-6
         8644.444     6.838945E-6
         8651.366     6.819115E-6
         8658.293     6.798432E-6
          8665.23     6.777608E-6
          8672.17     6.756644E-6
         8679.113     6.735509E-6
         8686.068     6.714233E-6
         8693.023     6.692808E-6
         8699.984     6.671207E-6
         8706.955     6.643907E-6
         8713.932     6.616495E-6
         8720.904     6.589013E-6
         8727.893     6.561341E-6
         8734.881     6.533598E-6
         8741.875     6.505748E-6
          8748.88     6.477757E-6
         8755.891     6.449615E-6
         8762.896     6.421406E-6
         8769.913     6.393075E-6
          8776.94     6.364569E-6
         8783.969     6.335981E-6
         8791.007     6.307265E-6
         8798.046     6.278416E-6
         8805.096     6.253519E-6
         8812.142     6.230065E-6
         8819.203     6.206411E-6
         8826.265     6.182609E-6
         8833.337     6.158621E-6
          8840.41     6.134480E-6
         8847.493     6.110155E-6
         8854.578     6.085697E-6
         8861.668     6.061073E-6
         8868.764     6.036249E-6
         8875.865     6.011252E-6
         8882.978     5.986064E-6
         8890.096     5.960700E-6
         8897.214     5.935183E-6
         8904.338     5.904850E-6
         8911.468     5.871415E-6
         8918.604     5.837874E-6
          8925.75     5.804202E-6
         8932.902     5.770421E-6
         8940.055     5.736559E-6
         8947.214     5.702617E-6
         8954.378     5.668111E-6
         8961.548     5.633208E-6
         8968.729     5.598181E-6
          8975.91     5.563081E-6
         8983.103     5.527856E-6
         8990.296     5.492556E-6
         8997.499     5.457140E-6
         9004.699     5.427801E-6
         9011.914     5.401542E-6
         9019.131     5.375141E-6
         9026.357     5.348518E-6
         9033.585     5.321745E-6
         9040.823     5.294783E-6
         9048.058     5.267647E-6
         9055.308     5.240294E-6
         9062.559     5.212788E-6
          9069.82     5.185098E-6
         9077.083     5.157210E-6
         9084.356     5.129135E-6
          9091.63     5.100904E-6
         9098.905     5.072475E-6
         9106.196     5.038089E-6
         9113.492     5.002584E-6
          9120.79     4.966987E-6
         9128.099     4.931260E-6
         9135.407     4.895454E-6
         9142.728     4.859523E-6
         9150.044     4.823550E-6
         9157.375     4.787394E-6
         9164.708     4.751150E-6
         9172.046     4.714802E-6
         9179.396     4.678318E-6
         9186.746     4.641749E-6
         9194.107     4.605046E-6
         9201.464     4.569613E-6
         9208.837     4.539312E-6
         9216.211     4.508826E-6
         9223.596     4.478115E-6
         9230.981     4.447217E-6
         9238.378     4.416092E-6
         9245.771     4.384779E-6
         9253.179     4.353007E-6
         9260.588     4.320778E-6
         9268.009     4.288319E-6
          9275.43     4.255686E-6
         9282.861     4.222826E-6
         9290.295     4.189778E-6
         9297.734     4.156523E-6
         9305.179     4.121578E-6
         9312.635     4.085778E-6
         9320.092     4.049830E-6
          9327.56     4.013686E-6
         9335.028     3.977394E-6
         9342.504     3.940931E-6
         9349.984     3.904316E-6
         9357.477     3.867473E-6
          9364.97     3.830479E-6
         9372.468     3.793314E-6
         9379.979     3.755940E-6
         9387.489     3.718417E-6
         9395.006     3.680717E-6
         9402.528     3.642884E-6
         9410.063     3.604930E-6
         9417.598     3.566819E-6
         9425.144     3.528500E-6
          9432.69     3.490023E-6
         9440.249     3.451331E-6
         9447.803     3.412511E-6
         9455.373     3.373465E-6
         9462.944     3.334255E-6
         9470.527     3.294815E-6
          9478.11     3.255220E-6
         9485.705     3.215405E-6
         9493.301     3.175427E-6
         9500.902     3.136509E-6
          9508.51     3.106757E-6
         9516.129     3.076934E-6
         9523.749     3.047084E-6
          9531.38     3.017168E-6
         9539.012     2.987224E-6
          9546.65     2.957234E-6
         9554.295     2.927188E-6
          9561.95     2.897074E-6
         9569.606     2.866949E-6
          9577.27     2.836779E-6
         9584.943     2.806546E-6
         9592.618     2.776289E-6
           9600.3     2.745816E-6
         9607.987     2.711132E-6
         9615.686     2.676489E-6
         9623.385     2.641926E-6
         9631.096     2.607395E-6
         9638.808     2.572968E-6
         9646.531     2.538581E-6
          9654.25     2.504307E-6
         9661.986     2.470049E-6
         9669.723     2.435884E-6
         9677.471     2.401747E-6
          9685.22     2.367710E-6
          9692.98     2.333720E-6
         9700.737     2.300233E-6
          9708.51     2.270428E-6
         9716.284     2.240592E-6
         9724.069     2.210701E-6
         9731.855     2.180787E-6
         9739.653     2.150796E-6
         9747.452     2.120781E-6
         9755.258     2.090146E-6
         9763.069     2.059206E-6
         9770.892     2.028228E-6
         9778.716     1.997257E-6
         9786.551     1.966237E-6
         9794.388     1.935212E-6
          9802.23     1.903732E-6
         9810.079     1.871170E-6
         9817.935     1.838653E-6
         9825.802     1.806142E-6
         9833.669     1.773696E-6
         9841.549     1.741265E-6
          9849.43     1.708886E-6
         9857.316     1.676548E-6
         9865.209     1.644259E-6
         9873.114     1.611984E-6
          9881.02     1.579771E-6
         9888.938     1.547584E-6
         9896.855     1.515456E-6
         9904.785     1.482785E-6
         9912.711     1.449861E-6
         9920.654     1.416970E-6
         9928.598     1.384193E-6
         9936.554     1.351485E-6
          9944.51     1.318892E-6
         9952.479     1.286358E-6
         9960.447     1.253936E-6
         9968.423     1.221602E-6
         9976.405     1.189362E-6
         9984.399     1.157190E-6
         9992.395     1.125130E-6
          10000.4     1.093863E-6
         10008.41     1.075984E-6
         10016.43     1.058189E-6
         10024.45     1.040453E-6
         10032.48     1.022777E-6
         10040.51     1.005164E-6
         10048.55     9.876134E-7
         10056.59     9.701273E-7
         10064.66     9.526810E-7
         10072.71     9.353470E-7
         10080.78     9.180293E-7
         10088.85     9.008056E-7
         10096.93     8.836462E-7
         10105.02     9.493163E-7
         10113.12     9.902440E-7
         10121.22     9.169648E-7
         10129.32     8.417773E-7
         10137.43     8.818277E-7
         10145.55     9.228924E-7
         10153.67     8.689669E-7
         10161.82     7.198752E-7
         10169.95     6.085184E-7
          10178.1     7.070514E-7
         10186.25     6.600296E-7
          10194.4     7.194876E-7
         10202.57     8.024606E-7
         10210.75     6.814426E-7
         10218.92     5.976618E-7
         10227.11     6.193110E-7
         10235.29     6.779309E-7
         10243.49     7.024897E-7
         10251.69     6.658669E-7
         10259.91     6.195376E-7
         10268.13     6.336256E-7
         10276.35     6.021245E-7
         10284.58     5.588357E-7
         10292.81     5.090214E-7
         10301.06     4.527914E-7
          10309.3     4.435045E-7
         10317.57     4.589377E-7
         10325.83     4.263058E-7
          10334.1     4.234370E-7
         10342.38     4.400031E-7
         10350.66     3.922958E-7
         10358.95     3.680176E-7
         10367.25     3.674356E-7
         10375.55     3.368418E-7
         10383.86     3.362052E-7
         10392.18     3.586727E-7
          10400.5     3.135420E-7
         10408.83     2.794816E-7
         10417.17     2.545511E-7
         10425.51     2.518423E-7
         10433.86     2.184096E-7
         10442.21     1.747640E-7
         10450.59     2.134308E-7
         10458.94     2.252424E-7
         10467.33     2.094394E-7
         10475.71     1.832606E-7
          10484.1     1.705503E-7
          10492.5     1.627626E-7
          10500.9     1.365309E-7
         10509.32     1.347139E-7
         10517.72     1.587743E-7
         10526.15     1.496333E-7
         10534.58     1.278232E-7
         10543.02     1.145529E-7
         10551.46     1.144257E-7
         10559.92     1.067589E-7
         10568.37     1.051772E-7
         10576.84     1.007239E-7
         10585.31     1.023425E-7
         10593.78     1.049076E-7
         10602.27     9.885902E-8
         10610.77     8.102303E-8
         10619.26     7.980838E-8
         10627.77     7.396496E-8
         10636.28     7.654814E-8
         10644.79     8.364697E-8
         10653.32     8.657901E-8
         10661.86     8.143653E-8
          10670.4     7.631875E-8
         10678.94     7.711111E-8
         10687.49     7.591515E-8
         10696.05     7.848197E-8
         10704.62     7.864221E-8
         10713.19     7.607217E-8
         10721.78     7.375502E-8
         10730.36     6.902287E-8
         10738.95     6.750430E-8
         10747.55     5.669106E-8
         10756.16     5.435783E-8
         10764.77     5.263333E-8
          10773.4     4.763682E-8
         10782.03     4.182324E-8
         10790.66     3.806904E-8
          10799.3     4.158758E-8
         10807.95     4.676291E-8
         10816.61     4.409591E-8
         10825.27     4.729991E-8
         10833.93     4.765788E-8
         10842.62     4.201856E-8
          10851.3     4.231807E-8
           10860.     3.812536E-8
          10868.7     3.855117E-8
          10877.4     3.345992E-8
          10886.1     3.398536E-8
         10894.83     3.086192E-8
         10903.55     2.579783E-8
          10912.3     2.439906E-8
         10921.04     2.259263E-8
         10929.78     2.211149E-8
         10938.53     2.495129E-8
         10947.29     2.249059E-8
         10956.06     1.755354E-8
         10964.84     1.656286E-8
         10973.62     1.598214E-8
          10982.4     1.297583E-8
          10991.2     1.343518E-8
           11000.     1.166281E-8
