#  Table wf3f555wsys.tab  Mon 12:22:19 02-Jun-97

#      WAVELENGTH      THROUGHPUT
#       angstroms                

            1850.     6.155627E-9
         1851.651     5.773177E-7
         1853.301     1.153627E-6
         1854.956     1.736784E-6
         1856.611     2.324932E-6
         1858.267     2.918915E-6
         1859.925     3.519121E-6
         1861.584     3.645529E-6
         1863.246     3.750429E-6
         1864.909     3.856274E-6
         1866.572     3.962990E-6
         1868.237     4.070658E-6
         1869.904     4.179341E-6
         1871.573     4.181652E-6
         1873.242     4.177278E-6
         1874.913     4.172724E-6
         1876.585     4.167987E-6
          1878.26     4.163066E-6
         1879.937     4.156323E-6
         1881.613     3.700827E-6
         1883.292     3.223552E-6
         1884.973     2.741728E-6
         1886.654     2.255902E-6
         1888.338     1.765457E-6
         1890.023     1.275846E-6
         1891.709     1.157021E-6
         1893.396     1.037108E-6
         1895.086     9.160437E-7
         1896.775     7.940428E-7
         1898.469     6.707211E-7
         1900.163     5.844153E-7
         1901.857     8.551027E-7
         1903.555     1.128514E-6
         1905.254     1.404327E-6
         1906.953     1.682352E-6
         1908.655     1.962955E-6
         1910.357     2.146309E-6
         1912.061     1.954667E-6
         1913.768     1.761158E-6
         1915.476     1.565872E-6
         1917.184     1.368930E-6
         1918.894     1.170199E-6
         1920.606     9.869684E-7
          1922.32     8.336930E-7
         1924.035     6.790337E-7
         1925.752     5.230637E-7
          1927.47     3.656113E-7
         1929.189     2.068396E-7
          1930.91     1.219321E-7
         1932.634     1.036123E-7
         1934.358     8.512673E-8
         1936.084     6.648681E-8
         1937.811     4.767750E-8
          1939.54     2.868877E-8
          1941.27     1.196198E-7
         1943.003     2.514984E-7
         1944.737     3.845479E-7
          1946.47     5.186018E-7
         1948.207     6.539948E-7
         1949.947     7.906481E-7
         1951.685     7.739008E-7
         1953.427     7.520893E-7
         1955.171     7.300630E-7
         1956.913     7.078476E-7
          1958.66     6.853882E-7
         1960.408     6.711311E-7
         1962.157     6.845154E-7
         1963.908     6.980077E-7
         1965.658     7.115830E-7
         1967.413     7.252744E-7
         1969.169     7.390677E-7
         1970.925     6.887006E-7
         1972.684     5.797756E-7
         1974.444     4.699359E-7
         1976.205     3.591103E-7
         1977.969     2.471631E-7
         1979.734     1.343542E-7
           1981.5     1.395086E-7
         1983.268     1.659437E-7
         1985.037     1.925925E-7
         1986.809     2.194852E-7
         1988.581     2.465911E-7
         1990.355     2.837645E-7
         1992.131     3.606069E-7
         1993.908     4.381131E-7
         1995.688     5.163827E-7
         1997.467     5.951758E-7
          1999.25     6.747374E-7
         2001.034     6.371549E-7
         2002.818     5.133742E-7
         2004.606     3.880944E-7
         2006.396     2.616057E-7
         2008.184     1.339997E-7
         2009.976     4.947762E-9
         2011.769     1.220947E-8
         2013.565     2.140001E-8
         2015.362     3.068283E-8
         2017.158     4.004628E-8
         2018.958     4.951375E-8
          2020.76     5.228708E-8
         2022.563     4.574353E-8
         2024.368     3.912897E-8
         2026.173     3.245198E-8
         2027.982     2.570322E-8
         2029.791     1.889097E-8
         2031.602     1.654545E-8
         2033.414     1.477351E-8
         2035.228     1.298369E-8
         2037.044     1.117480E-8
         2038.861     9.348923E-9
         2040.681     3.497943E-8
         2042.502     1.070532E-7
         2044.324     1.797849E-7
         2046.147     2.532115E-7
         2047.974     3.273911E-7
           2049.8     4.022331E-7
          2051.63     3.499618E-7
         2053.461     2.814238E-7
         2055.291     2.123012E-7
         2057.125     1.424339E-7
         2058.961     7.189196E-8
         2060.798     4.040958E-8
         2062.637     6.057255E-8
         2064.477     8.091075E-8
         2066.318     1.014357E-7
         2068.164     1.221758E-7
         2070.007     1.429832E-7
         2071.855     1.416682E-7
         2073.704     1.403374E-7
         2075.553     1.389915E-7
         2077.405     1.376295E-7
         2079.259     1.362501E-7
         2081.113     1.214227E-7
         2082.971     9.745398E-8
         2084.829     7.328200E-8
         2086.688     4.889314E-8
          2088.55     2.426698E-8
         2090.414     4.914138E-9
         2092.279     4.712624E-9
         2094.145     4.509276E-9
         2096.014     4.303867E-9
         2097.885     4.096580E-9
         2099.756     3.887511E-9
          2101.63     7.332161E-9
         2103.503     1.135160E-8
         2105.381     1.540938E-8
          2107.26     1.950201E-8
         2109.139     2.362645E-8
         2111.022     3.021577E-8
         2112.906     3.891387E-8
         2114.789     4.767178E-8
         2116.677     5.651256E-8
         2118.564     6.541941E-8
         2120.455     6.954099E-8
         2122.348     5.829428E-8
         2124.241     4.696568E-8
         2126.135     3.554467E-8
         2128.033     2.402631E-8
         2129.932     1.241458E-8
         2131.832     1.058501E-8
         2133.734     9.106748E-9
         2135.637     7.617251E-9
         2137.544     6.114338E-9
          2139.45     4.602809E-9
         2141.359     5.445267E-9
          2143.27     7.256515E-9
         2145.182     9.080877E-9
         2147.096     1.092029E-8
         2149.011     1.277270E-8
         2150.929     1.368060E-8
         2152.848     1.356957E-8
         2154.768     1.345749E-8
         2156.692     1.334424E-8
         2158.615     1.323015E-8
         2160.541     1.268007E-8
         2162.469     1.100878E-8
         2164.397     9.327758E-9
          2166.33     7.631604E-9
         2168.263     5.924317E-9
         2170.196     5.161014E-9
         2172.133     1.288169E-8
          2174.07     2.064687E-8
         2176.011     2.846852E-8
         2177.953     3.634100E-8
         2179.895     4.425854E-8
          2181.84     4.312623E-8
         2183.787     4.146567E-8
         2185.735     3.979548E-8
         2187.686     3.811395E-8
         2189.637     3.642291E-8
          2191.59     4.392872E-8
         2193.546     5.359252E-8
         2195.503     6.330828E-8
         2197.462     7.307256E-8
         2199.423     8.289773E-8
         2201.385     7.496266E-8
         2203.348     5.938816E-8
         2205.315     4.353580E-8
         2207.283     2.741566E-8
         2209.252     1.103651E-8
         2211.222     6.132849E-9
         2213.196     8.402755E-9
          2215.17     1.070649E-8
         2217.147     1.304765E-8
         2219.125     1.542475E-8
         2221.104     3.351048E-8
         2223.086     6.443803E-8
         2225.071     9.585533E-8
         2227.055     1.276867E-7
         2229.042     1.600322E-7
         2231.031     1.637154E-7
         2233.021     1.401628E-7
         2235.015     1.162209E-7
         2237.008     9.194650E-8
         2239.003     6.730564E-8
         2241.002     7.138961E-8
         2242.999     1.046581E-7
         2245.002     1.384532E-7
         2247.005     1.726787E-7
         2249.009     2.073780E-7
         2251.016     2.039401E-7
         2253.024     1.625198E-7
         2255.033     1.205228E-7
         2257.046     7.791515E-8
         2259.061     3.472457E-8
         2261.075     1.739392E-8
         2263.092     2.307049E-8
         2265.112     2.882437E-8
         2267.134     3.465245E-8
         2269.156     4.055083E-8
         2271.181     3.877140E-8
         2273.207     3.138981E-8
         2275.234     2.391194E-8
         2277.266     1.632817E-8
         2279.296     8.662764E-9
          2281.33     9.311766E-9
         2283.366     1.445421E-8
         2285.402     1.965331E-8
         2287.441     2.492182E-8
         2289.483     3.025318E-8
         2291.525     2.796662E-8
          2293.57     2.302771E-8
         2295.615     1.803477E-8
         2297.663     1.297848E-8
         2299.715     7.855720E-9
         2301.765     8.369288E-9
          2303.82     9.814486E-9
         2305.876     1.127687E-8
         2307.932     1.275563E-8
         2309.992     1.425279E-8
         2312.051     1.456845E-8
         2314.116     1.488313E-8
          2316.18     1.520045E-8
         2318.246     1.552073E-8
         2320.315     1.552038E-8
         2322.385     1.370512E-8
         2324.457     1.186670E-8
         2326.531     1.000741E-8
         2328.606     8.125846E-9
         2330.685     6.960876E-9
         2332.764     7.299000E-9
         2334.845     7.640696E-9
         2336.927     7.985903E-9
         2339.012     8.334676E-9
         2341.101     9.110486E-9
         2343.188     1.027513E-8
         2345.279     1.145247E-8
         2347.372     1.264312E-8
         2349.467     1.384633E-8
         2351.562     1.560620E-8
         2353.661     1.757304E-8
         2355.759     1.955774E-8
         2357.862     2.156573E-8
         2359.966     2.359431E-8
         2362.071     2.245725E-8
         2364.179     2.125365E-8
         2366.288     2.003733E-8
         2368.398     1.880739E-8
         2370.512     1.748741E-8
         2372.628     1.591510E-8
         2374.744     1.432710E-8
         2376.863     1.272132E-8
         2378.983     1.109954E-8
         2381.105     1.925283E-8
          2383.23     3.655504E-8
         2385.357     5.402718E-8
         2387.485     7.166184E-8
         2389.615     8.946763E-8
         2391.747     7.934911E-8
         2393.881     6.290630E-8
         2396.017     4.629224E-8
         2398.154     2.952715E-8
         2400.293     1.647665E-8
         2402.435     2.785624E-8
          2404.58     3.934366E-8
         2406.724     5.093012E-8
         2408.872     6.263051E-8
         2411.022     6.510743E-8
         2413.171     5.726963E-8
         2415.326     4.934387E-8
         2417.479     4.135950E-8
         2419.637     3.329003E-8
         2421.796     3.118979E-8
         2423.957     3.029752E-8
          2426.12     2.939594E-8
         2428.284     2.848614E-8
         2430.451     2.902918E-8
         2432.619     3.516532E-8
         2434.789     4.135332E-8
         2436.962     4.759827E-8
         2439.136     5.389553E-8
         2441.312     7.797195E-8
          2443.49     1.139695E-7
          2445.67     1.502917E-7
         2447.853     1.869235E-7
         2450.036     2.226224E-7
         2452.222     1.868349E-7
         2454.409     1.507435E-7
           2456.6     1.143225E-7
         2458.792     7.759909E-8
         2460.985     6.272418E-8
          2463.18     7.499226E-8
         2465.379     8.736770E-8
         2467.579     9.984132E-8
         2469.778     1.123994E-7
         2471.983     1.179818E-7
          2474.19     1.228128E-7
         2476.396     1.276717E-7
         2478.606     1.325729E-7
         2480.817     1.404090E-7
         2483.029     1.532800E-7
         2485.247     1.662679E-7
         2487.462     1.793316E-7
         2489.682     1.925116E-7
         2491.904     1.621705E-7
         2494.125     1.243204E-7
         2496.353     8.609564E-8
         2498.579     4.761201E-8
         2500.808     2.220207E-8
          2503.04     2.022158E-8
         2505.272     1.822634E-8
         2507.509     1.621343E-8
         2509.745     1.418588E-8
         2511.985     1.634961E-8
         2514.225     1.907167E-8
         2516.468     2.181507E-8
         2518.714     2.458108E-8
         2520.962     3.108235E-8
          2523.21     4.261364E-8
         2525.462     5.424206E-8
         2527.715     6.595288E-8
         2529.971     7.776161E-8
         2532.229     6.395472E-8
         2534.486     4.971557E-8
         2536.748     3.534663E-8
          2539.01     2.083952E-8
         2541.277     1.393651E-8
         2543.545     1.297424E-8
         2545.813     1.200838E-8
         2548.084     1.103843E-8
         2550.358     1.192979E-8
         2552.635     2.283261E-8
         2554.911     3.377167E-8
         2557.191     4.476323E-8
         2559.471     5.578596E-8
         2561.755     5.662034E-8
         2564.042     5.436121E-8
         2566.329     5.209341E-8
         2568.619     4.981454E-8
         2570.908     4.563470E-8
         2573.205     3.853646E-8
           2575.5     3.141852E-8
         2577.797     2.426965E-8
         2580.097     1.746598E-8
         2582.399     1.921090E-8
         2584.704     2.096407E-8
          2587.01     2.272399E-8
         2589.318     2.449006E-8
         2591.629     2.652390E-8
          2593.94     2.867404E-8
         2596.254     3.083246E-8
         2598.573     3.300233E-8
         2600.889     3.227322E-8
          2603.21     2.685927E-8
         2605.532     2.142585E-8
         2607.856     1.596905E-8
         2610.185     1.115479E-8
         2612.512     1.413302E-8
         2614.843     1.712706E-8
         2617.177     2.013373E-8
          2619.51     2.314920E-8
         2621.849     2.749661E-8
         2624.188     3.220627E-8
         2626.528     3.693535E-8
         2628.873     4.168725E-8
         2631.217     4.341731E-8
         2633.566     4.233214E-8
         2635.916     4.124177E-8
         2638.267     4.014680E-8
          2640.62     4.456899E-8
         2642.977     6.448739E-8
         2645.334     8.447911E-8
         2647.695     1.045667E-7
         2650.057     1.236647E-7
         2652.422     9.968237E-8
         2654.788     7.561120E-8
         2657.157     5.141927E-8
         2659.526     2.715192E-8
         2661.899     2.533485E-8
         2664.275     2.916159E-8
         2666.652     3.300218E-8
         2669.031     3.686092E-8
         2671.412     3.649720E-8
         2673.796     3.321624E-8
         2676.181     2.992299E-8
          2678.57     2.661311E-8
          2680.96     2.335307E-8
          2683.35     2.017872E-8
         2685.746     1.698482E-8
          2688.14     1.378279E-8
          2690.54     1.746368E-8
         2692.941     4.500367E-8
         2695.343     7.264716E-8
         2697.748     1.004218E-7
         2700.153     1.261231E-7
         2702.563     1.201203E-7
         2704.975     1.140719E-7
         2707.387     1.079806E-7
         2709.804     1.018385E-7
         2712.222     1.036329E-7
         2714.642     1.061440E-7
         2717.063     1.086710E-7
         2719.486     1.112146E-7
         2721.915     9.628547E-8
         2724.343     7.655792E-8
         2726.772     5.668537E-8
         2729.205     3.666748E-8
          2731.64     2.718411E-8
         2734.078     2.283728E-8
         2736.517     1.846118E-8
         2738.958     1.405356E-8
         2741.402     1.275852E-8
         2743.849     1.380283E-8
         2746.296     1.485367E-8
         2748.747     1.591245E-8
         2751.198     1.594441E-8
         2753.653     1.489431E-8
         2756.111     1.384155E-8
         2758.569     1.278676E-8
         2761.031     1.379853E-8
         2763.495     1.769059E-8
         2765.958     2.158768E-8
         2768.427     2.549907E-8
         2770.898     2.684007E-8
         2773.369     2.365857E-8
         2775.844     2.046728E-8
          2778.32     1.726998E-8
         2780.799     2.748752E-8
          2783.28     6.602891E-8
         2785.764     1.046679E-7
         2788.249     1.433742E-7
         2790.736     1.595818E-7
         2793.227     1.219663E-7
          2795.72     8.426087E-8
         2798.213     4.648746E-8
         2800.709     1.924127E-8
         2803.209     1.872004E-8
         2805.709     1.819785E-8
         2808.213     1.767408E-8
         2810.718     1.697246E-8
         2813.226     1.582723E-8
         2815.736     1.468002E-8
         2818.247     1.353015E-8
         2820.764     1.473340E-8
         2823.278     2.134468E-8
         2825.798     2.797923E-8
          2828.32     3.462874E-8
         2830.843     4.498241E-8
         2833.369     6.274240E-8
         2835.898     8.054368E-8
         2838.426     9.836221E-8
         2840.959     1.129512E-7
         2843.495     1.221582E-7
         2846.031     1.313798E-7
         2848.571     1.406285E-7
         2851.112     1.315195E-7
         2853.655     9.873297E-8
         2856.202     6.585702E-8
         2858.751     3.291037E-8
         2861.301     4.495591E-8
         2863.853     1.003594E-7
         2866.407     1.558851E-7
         2868.965     2.115654E-7
         2871.526     2.167755E-7
         2874.087     1.876635E-7
         2876.652     1.584691E-7
         2879.218     1.292337E-7
         2881.788     1.051988E-7
         2884.358     8.344411E-8
         2886.931     6.164274E-8
         2889.507     3.978419E-8
         2892.084     3.153055E-8
         2894.666     2.648733E-8
         2897.248     2.143638E-8
         2899.832     1.637576E-8
         2902.421     1.520463E-8
          2905.01     1.430765E-8
         2907.601     1.341201E-8
         2910.198     1.278733E-8
          2912.79     1.543957E-8
         2915.392     1.809385E-8
         2917.992     2.074016E-8
         2920.594     2.254214E-8
         2923.203     2.150489E-8
         2925.807     2.047182E-8
          2928.42     1.943799E-8
         2931.033     1.814763E-8
         2933.646     1.646567E-8
         2936.266     1.478363E-8
         2938.885     1.310672E-8
         2941.506     1.294876E-8
         2944.131     1.391361E-8
         2946.757     1.487600E-8
         2949.387     1.583709E-8
         2952.018     5.094355E-8
         2954.653     9.636810E-8
          2957.29     1.417054E-7
         2959.926     1.869003E-7
         2962.567     1.557241E-7
          2965.21     1.224203E-7
         2967.856     8.916520E-8
         2970.505     5.982555E-8
         2973.155     4.690058E-8
         2975.808     3.399290E-8
         2978.461     2.112757E-8
         2981.121     1.818717E-8
          2983.78     2.886121E-8
         2986.441     3.951300E-8
         2989.104     5.014144E-8
         2991.772     4.627949E-8
         2994.442     3.511821E-8
         2997.113     2.398643E-8
         2999.788     1.287108E-8
         3002.464     1.355777E-8
         3005.142     1.525342E-8
         3007.826     1.694743E-8
         3010.507     2.176189E-8
         3013.194     3.999531E-8
         3015.883     5.818811E-8
         3018.573     7.632851E-8
         3021.267     7.766361E-8
          3023.96     6.013063E-8
          3026.66     4.260548E-8
          3029.36     2.514071E-8
         3032.062     2.096963E-8
          3034.77     2.091754E-8
         3037.475     2.086551E-8
         3040.186     2.064532E-8
         3042.897     1.814776E-8
         3045.612     1.565579E-8
         3048.332     1.316655E-8
         3051.051     1.166786E-8
         3053.772     1.173039E-8
         3056.497     1.179273E-8
         3059.222     1.185474E-8
         3061.954     1.505201E-8
         3064.685     1.948328E-8
         3067.418     2.390374E-8
         3070.156     2.808075E-8
         3072.896     2.836899E-8
         3075.637     2.865612E-8
          3078.38     2.894230E-8
         3081.126     2.748803E-8
         3083.877     2.353237E-8
         3086.628     1.959139E-8
         3089.381     1.566090E-8
         3092.137     1.621277E-8
         3094.895     1.805735E-8
         3097.659     1.989916E-8
         3100.422     2.452587E-8
         3103.187     4.470784E-8
         3105.955     6.496863E-8
         3108.729     8.533357E-8
         3111.501     1.103091E-7
         3114.277     1.392529E-7
         3117.056     1.683273E-7
         3119.836     1.974942E-7
         3122.621     1.929764E-7
         3125.406     1.863246E-7
         3128.195     1.796426E-7
         3130.985     1.592489E-7
         3133.778     1.136399E-7
         3136.575     6.782496E-8
         3139.373     2.185955E-8
         3142.175     1.154508E-8
         3144.979     1.156260E-8
         3147.784     1.158013E-8
         3150.592     1.280339E-8
         3153.405     1.856634E-8
         3156.218     2.434414E-8
         3159.035     3.014836E-8
         3161.851     3.014721E-8
         3164.674     2.709661E-8
         3167.497     2.403775E-8
         3170.322     2.158543E-8
         3173.152     2.394019E-8
         3175.982     2.630276E-8
         3178.816     2.867581E-8
         3181.652     3.521857E-8
          3184.49     4.477499E-8
         3187.333     5.438163E-8
         3190.175     6.425002E-8
         3193.022     7.789124E-8
          3195.87     9.157799E-8
         3198.722     1.053257E-7
         3201.577     1.451381E-7
         3204.433     2.062013E-7
         3207.291     2.675002E-7
         3210.151     3.221907E-7
         3213.018     2.541993E-7
         3215.884     1.860293E-7
         3218.752     1.175875E-7
         3221.623     7.889599E-8
         3224.499     6.316691E-8
         3227.376     4.737528E-8
         3230.255     4.071320E-8
         3233.136     1.286633E-7
          3236.02     2.169613E-7
         3238.908     3.056607E-7
         3241.799     3.122870E-7
          3244.69     2.688229E-7
         3247.584     2.251811E-7
         3250.485     1.897156E-7
         3253.384     1.960660E-7
         3256.286     2.024408E-7
         3259.192     2.088440E-7
         3262.097     1.762201E-7
          3265.01     1.282908E-7
         3267.922     8.023552E-8
         3270.837     4.480339E-8
         3273.758     4.110458E-8
         3276.675     3.740051E-8
         3279.601     3.367221E-8
         3282.526     1.039266E-7
         3285.454     1.861880E-7
         3288.388     2.688714E-7
         3291.319     2.821254E-7
         3294.257     2.100771E-7
         3297.195     1.377889E-7
         3300.137     6.829746E-8
         3303.083     6.251439E-8
         3306.029     5.671138E-8
         3308.979     5.088211E-8
         3311.931     5.221822E-8
         3314.885     5.736636E-8
         3317.844     6.253780E-8
         3320.803     7.887744E-8
         3323.767     1.253251E-7
         3326.731     1.719310E-7
           3329.7     2.187531E-7
          3332.67     1.718752E-7
         3335.643     1.142488E-7
         3338.622     5.632396E-8
         3341.599     9.195418E-8
          3344.58     2.087052E-7
         3347.563     3.259150E-7
         3350.551     4.080423E-7
         3353.541     3.325221E-7
         3356.532     2.567401E-7
         3359.528     1.806090E-7
         3362.524     1.990368E-7
         3365.525     2.353378E-7
         3368.527     2.717635E-7
         3371.532     3.581714E-7
         3374.541     4.930505E-7
         3377.551     6.283970E-7
         3380.565     7.298906E-7
         3383.582     6.820251E-7
         3386.598     6.340214E-7
         3389.623     5.857310E-7
         3392.646     5.790720E-7
         3395.672     5.783525E-7
         3398.705     5.776268E-7
         3401.732     5.940786E-7
          3404.77     6.235453E-7
         3407.807     6.530940E-7
         3410.847     6.719400E-7
         3413.893     6.627541E-7
         3416.938     6.535395E-7
         3419.985     6.442838E-7
         3423.038     7.209776E-7
         3426.089     7.983066E-7
         3429.148     8.760933E-7
         3432.207     9.580530E-7
         3435.268     1.041875E-6
         3438.334     1.126094E-6
         3441.401     1.135241E-6
         3444.473     1.054543E-6
         3447.545     9.735645E-7
         3450.622     9.138618E-7
         3453.701     9.397365E-7
         3456.782     9.656968E-7
         3459.865     9.917633E-7
         3462.951     9.290400E-7
         3466.042     8.619368E-7
         3469.135     7.945499E-7
         3472.229     8.978192E-7
         3475.326     1.068014E-6
         3478.426     1.238919E-6
         3481.532     1.313284E-6
         3484.638     1.287652E-6
         3487.746     1.261908E-6
         3490.859     1.228537E-6
         3493.972     1.175323E-6
         3497.091     1.121850E-6
          3500.21     1.074597E-6
         3503.334     1.116435E-6
          3506.46     1.158450E-6
         3509.586     1.200589E-6
          3512.72     1.230919E-6
         3515.852     1.259484E-6
         3518.989     1.288201E-6
          3522.13     1.246424E-6
         3525.271     1.170908E-6
         3528.418     1.095015E-6
         3531.563     1.108910E-6
         3534.717     1.214433E-6
          3537.87     1.320287E-6
         3541.025     1.397888E-6
         3544.188     1.416032E-6
         3547.349     1.434226E-6
         3550.513     1.459375E-6
         3553.679     1.520307E-6
         3556.849     1.581503E-6
         3560.026     1.642426E-6
         3563.201     1.628080E-6
         3566.379     1.613664E-6
         3569.562     1.599166E-6
         3572.746     1.518209E-6
         3575.935     1.426208E-6
         3579.124     1.333854E-6
         3582.316     1.337800E-6
         3585.513     1.378455E-6
         3588.714     1.419289E-6
         3591.915     1.542499E-6
         3595.118     1.721638E-6
         3598.325     1.901589E-6
         3601.538     2.005809E-6
         3604.751     2.026680E-6
         3607.966     2.047633E-6
         3611.184     2.044079E-6
         3614.409     1.998073E-6
         3617.633     1.951909E-6
         3620.859     1.946940E-6
         3624.089     2.056321E-6
         3627.322     2.166182E-6
         3630.561     2.260717E-6
         3633.799     2.279265E-6
          3637.04     2.297887E-6
         3640.286     2.318964E-6
         3643.533     2.364712E-6
         3646.785     2.410682E-6
         3650.038     2.456883E-6
         3653.295     2.508752E-6
         3656.556     2.560849E-6
         3659.815     2.613101E-6
         3663.082     2.595157E-6
         3666.353     2.572866E-6
         3669.621     2.550501E-6
         3672.896     2.598129E-6
         3676.172     2.655133E-6
         3679.451     2.712381E-6
         3682.737     2.791986E-6
         3686.022     2.876275E-6
         3689.309     2.960928E-6
           3692.6     2.999148E-6
         3695.896     3.025072E-6
         3699.194     3.051102E-6
         3702.494     3.058892E-6
         3705.798     3.060765E-6
         3709.101     3.062630E-6
         3712.412     3.089020E-6
         3715.725     3.124682E-6
         3719.039     3.160470E-6
         3722.358     3.160195E-6
         3725.678     3.145114E-6
         3729.004     3.129939E-6
          3732.33     3.187604E-6
         3735.659     3.276795E-6
         3738.995     3.366489E-6
          3742.33     3.384317E-6
         3745.668     3.370999E-6
         3749.009     3.357603E-6
         3752.354     3.357975E-6
         3755.703     3.364182E-6
         3759.053     3.370395E-6
         3762.408     3.444764E-6
         3765.764     3.546258E-6
         3769.125     3.648256E-6
         3772.487     3.687927E-6
         3775.852     3.705636E-6
         3779.222     3.723420E-6
         3782.594     3.755820E-6
         3785.968     3.792705E-6
         3789.345     3.829742E-6
         3792.725     3.870006E-6
         3796.112     3.911225E-6
         3799.498     3.952566E-6
         3802.887     3.923970E-6
         3806.279     3.883004E-6
         3809.676     3.841801E-6
         3813.076     3.904850E-6
         3816.477     3.979159E-6
         3819.881     4.053785E-6
          3823.29     4.086761E-6
           3826.7     4.118325E-6
         3830.116     4.150136E-6
         3833.532     4.185028E-6
         3836.951     4.220055E-6
         3840.378     4.257535E-6
         3843.803     4.313469E-6
         3847.232     4.369635E-6
         3850.663     4.424459E-6
         3854.102     4.473000E-6
          3857.54     4.521681E-6
          3860.98     4.551779E-6
         3864.426     4.534714E-6
         3867.875     4.517551E-6
         3871.325     4.517702E-6
         3874.778     4.545824E-6
         3878.234     4.574049E-6
         3881.695     4.563113E-6
         3885.157     4.511116E-6
         3888.625     4.458829E-6
         3892.094     4.530441E-6
         3895.565     4.684084E-6
         3899.044     4.838590E-6
         3902.521     4.825481E-6
         3906.002     4.748385E-6
         3909.489     4.670881E-6
         3912.975     4.720205E-6
         3916.468     4.791691E-6
         3919.961     4.863423E-6
         3923.457     4.841134E-6
         3926.961     4.817628E-6
         3930.462     4.814541E-6
         3933.969     4.946862E-6
         3937.478     5.079660E-6
         3940.992     5.155093E-6
          3944.51     5.083048E-6
         3948.028     5.010714E-6
          3951.55     4.973627E-6
         3955.074     4.981759E-6
         3958.606     4.989915E-6
         3962.137     4.995219E-6
         3965.671     4.998655E-6
          3969.21     5.002088E-6
          3972.75     5.013319E-6
         3976.296     5.026834E-6
         3979.843     5.040379E-6
         3983.395     5.063207E-6
          3986.95     5.086540E-6
         3990.504     5.113315E-6
         3994.065     5.160820E-6
          3997.63     5.208507E-6
         4001.196     5.259766E-6
         4004.767     5.317923E-6
         4008.339     5.376075E-6
         4011.914     5.413826E-6
         4015.494     5.433862E-6
         4019.078     5.453905E-6
         4022.663     5.380105E-6
         4026.251     5.273754E-6
         4029.844     5.167287E-6
         4033.441     5.127966E-6
         4037.039     5.091686E-6
         4040.639     5.067354E-6
         4044.243     5.098475E-6
         4047.855     5.129644E-6
         4051.465     5.140721E-6
         4055.079     5.122407E-6
         4058.698     5.104073E-6
         4062.316     5.096073E-6
         4065.944     5.093867E-6
          4069.57     5.091659E-6
           4073.2     5.103509E-6
         4076.838     5.117264E-6
         4080.472     5.120816E-6
         4084.114     5.056041E-6
         4087.756     4.991281E-6
         4091.405     4.948894E-6
         4095.056     4.942346E-6
         4098.708     4.935798E-6
         4102.367     4.964222E-6
         4106.026     5.011721E-6
         4109.688     5.059221E-6
         4113.356     5.075487E-6
         4117.025     5.088834E-6
         4120.699     5.100766E-6
         4124.375     5.106636E-6
         4128.056     5.112510E-6
         4131.738     5.107364E-6
         4135.423     5.089887E-6
         4139.116     5.072379E-6
         4142.808     5.025765E-6
         4146.503     4.969957E-6
         4150.201     4.917482E-6
         4153.903     4.923048E-6
         4157.613     4.928615E-6
         4161.321     4.956485E-6
         4165.033     5.024678E-6
         4168.748     5.092872E-6
         4172.466     5.032454E-6
         4176.192     4.906525E-6
         4179.917     4.780733E-6
         4183.645     4.832329E-6
         4187.379     4.888000E-6
         4191.116     4.912273E-6
         4194.854     4.862820E-6
         4198.596     4.813362E-6
         4202.343     4.815237E-6
         4206.094     4.847965E-6
         4209.845     4.880751E-6
         4213.603     4.814405E-6
         4217.358     4.743697E-6
         4221.123     4.698995E-6
          4224.89     4.716144E-6
         4228.658     4.733323E-6
         4232.432     4.771633E-6
         4236.208     4.821662E-6
         4239.988     4.871843E-6
          4243.77     4.774805E-6
         4247.555     4.677051E-6
         4251.348     4.596604E-6
          4255.14     4.548118E-6
         4258.936     4.499503E-6
         4262.734     4.437676E-6
         4266.537     4.370583E-6
         4270.347     4.298091E-6
         4274.155     4.174071E-6
         4277.968     4.049714E-6
         4281.786     3.952744E-6
         4285.605     3.887224E-6
          4289.43     3.821498E-6
         4293.256     3.761464E-6
         4297.085     3.702302E-6
         4300.922     3.657374E-6
         4304.759     3.658114E-6
         4308.598     3.658852E-6
         4312.441     3.812494E-6
          4316.29     4.054590E-6
         4320.142     4.320131E-6
         4323.996     5.183311E-6
         4327.854     6.049086E-6
         4331.715     8.053547E-6
         4335.581     1.149009E-5
         4339.448     1.493262E-5
         4343.318     2.243384E-5
         4347.195     3.063387E-5
         4351.072     4.367261E-5
         4354.956     6.939968E-5
          4358.84     9.517346E-5
         4362.728     1.410597E-4
         4366.624     1.956766E-4
         4370.519     2.616511E-4
         4374.417     4.014832E-4
         4378.318     5.416386E-4
         4382.229     7.279689E-4
         4386.137     9.489733E-4
         4390.049     0.001174736
         4393.967     0.001732477
         4397.889     0.002291631
         4401.812     0.002978835
         4405.738     0.003816182
         4409.667     0.004655561
         4413.603     0.005745496
         4417.542     0.006860974
         4421.482     0.008144218
         4425.426     0.009705648
         4429.373      0.01127062
         4433.329      0.01292052
         4437.283       0.0145874
         4441.241      0.01633271
         4445.205      0.01824744
         4449.169      0.02016556
          4453.14      0.02195609
         4457.112      0.02371466
         4461.088      0.02548648
         4465.069      0.02728777
         4469.052      0.02909221
         4473.041       0.0306744
          4477.03      0.03218825
         4481.028      0.03368216
         4485.022      0.03510378
         4489.025      0.03653063
         4493.032       0.0377164
         4497.039      0.03882556
         4501.053      0.03995623
         4505.067      0.04114392
         4509.086      0.04234088
         4513.107      0.04332276
         4517.136      0.04424644
         4521.167      0.04515745
           4525.2      0.04602715
         4529.238      0.04690356
         4533.281      0.04765109
         4537.324      0.04837169
         4541.371      0.04907471
         4545.422      0.04973856
         4549.479      0.05040705
         4553.539      0.05098831
           4557.6      0.05155925
         4561.668      0.05211243
         4565.734      0.05263693
         4569.809      0.05316516
         4573.887      0.05364601
         4577.967      0.05412675
         4582.053      0.05458756
         4586.142      0.05502817
         4590.233      0.05546815
         4594.327      0.05586706
         4598.425      0.05626778
         4602.529      0.05665551
         4606.637      0.05703553
         4610.746      0.05741445
          4614.86       0.0577839
         4618.979      0.05815497
         4623.097      0.05851813
         4627.223      0.05888024
          4631.35      0.05923464
         4635.483       0.0595722
         4639.621      0.05991098
         4643.759      0.06024298
           4647.9      0.06057539
         4652.046      0.06089624
         4656.198      0.06120514
         4660.354      0.06151546
         4664.511      0.06183124
         4668.673      0.06214818
          4672.84      0.06245868
         4677.005      0.06276623
          4681.18      0.06307598
         4685.355      0.06338856
         4689.537      0.06370234
         4693.722      0.06401101
         4697.909      0.06431963
         4702.102      0.06462826
         4706.293      0.06493629
         4710.493      0.06524371
         4714.697      0.06553781
         4718.902      0.06583247
         4723.114      0.06613332
          4727.33      0.06643678
         4731.543      0.06673241
         4735.766      0.06701476
          4739.99      0.06729764
         4744.221      0.06759794
         4748.455      0.06789906
          4752.69      0.06820026
         4756.932      0.06850214
         4761.172      0.06880198
         4765.421      0.06909662
         4769.674      0.06939199
         4773.929      0.06968796
         4778.189      0.06998484
         4782.454      0.07028192
         4786.719      0.07057919
         4790.989      0.07087356
         4795.262      0.07115658
         4799.542      0.07144041
         4803.826      0.07174577
          4808.11      0.07205424
         4812.401      0.07235185
         4816.696      0.07264078
         4820.993       0.0729336
         4825.292      0.07323827
         4829.597      0.07354376
         4833.907      0.07384384
         4838.221      0.07414407
         4842.537      0.07444684
         4846.855      0.07475178
         4851.179      0.07505245
         4855.508      0.07534038
         4859.842      0.07562894
         4864.177       0.0759224
         4868.518      0.07621685
         4872.863       0.0765095
         4877.209      0.07680137
          4881.56      0.07709261
         4885.914      0.07738215
         4890.277      0.07767309
         4894.639      0.07797107
         4899.004      0.07826972
         4903.376      0.07856429
         4907.748       0.0788577
          4912.13      0.07914997
         4916.512      0.07944001
         4920.897      0.07973138
         4925.289      0.08002649
         4929.685      0.08032226
         4934.082      0.08061838
         4938.482      0.08091511
         4942.887      0.08120068
         4947.301      0.08148094
         4951.714      0.08177027
         4956.131      0.08207431
         4960.554      0.08237758
         4964.976      0.08266992
          4969.41      0.08296341
         4973.842      0.08325128
         4978.278      0.08353876
         4982.724      0.08382225
         4987.168      0.08410282
         4991.617       0.0843882
         4996.069      0.08468165
         5000.528      0.08497963
         5004.991      0.08530602
         5009.455      0.08563279
         5013.923      0.08596008
         5018.398      0.08628806
         5022.874      0.08662505
         5027.357      0.08696768
         5031.841      0.08730176
         5036.329      0.08762349
         5040.827      0.08794709
         5045.323      0.08827507
         5049.823      0.08860363
         5054.327      0.08893958
         5058.838       0.0892766
         5063.353      0.08962148
         5067.869       0.0899693
          5072.39       0.0903064
         5076.919      0.09063423
         5081.448       0.0909548
          5085.98      0.09126008
         5090.516       0.0915688
          5095.06      0.09190258
         5099.607      0.09223692
         5104.155      0.09255937
         5108.708      0.09288109
         5113.265      0.09319362
         5117.828      0.09350287
         5122.396      0.09381484
         5126.965      0.09412904
         5131.538      0.09444162
          5136.12      0.09475105
         5140.701      0.09506344
         5145.287      0.09539287
         5149.876      0.09572275
         5154.472      0.09603068
         5159.072      0.09633827
         5163.674      0.09664593
         5168.283      0.09695408
         5172.895       0.0972536
         5177.506      0.09754772
         5182.127       0.0978417
         5186.749      0.09813493
         5191.378      0.09842752
         5196.012      0.09871776
         5200.646      0.09900849
         5205.285      0.09930243
         5209.928      0.09959656
         5214.577      0.09989228
         5219.231       0.1001882
         5223.887        0.100479
         5228.549        0.100769
         5233.215       0.1010556
          5237.88       0.1013405
         5242.555        0.101623
         5247.231       0.1019031
         5251.914       0.1021758
         5256.601       0.1024373
          5261.29        0.102695
         5265.985       0.1029431
          5270.68       0.1031954
         5275.383       0.1034757
         5280.092       0.1037554
         5284.801       0.1039992
         5289.518        0.104243
         5294.239       0.1044946
         5298.958       0.1047467
         5303.687       0.1049866
         5308.418       0.1052226
         5313.155       0.1054595
         5317.897       0.1056967
         5322.641       0.1059317
         5327.391       0.1061653
          5332.14       0.1063892
         5336.899        0.106602
         5341.662       0.1068181
         5346.426       0.1070409
         5351.198       0.1072548
         5355.974       0.1074422
         5360.751       0.1076351
         5365.532       0.1078603
         5370.318       0.1080821
         5375.111       0.1082604
         5379.908       0.1084379
         5384.707       0.1086163
         5389.513       0.1087942
         5394.323       0.1089699
         5399.131       0.1091447
          5403.95       0.1093237
          5408.77       0.1095031
         5413.597       0.1096561
         5418.429       0.1097994
         5423.262       0.1099564
         5428.099       0.1101198
          5432.94       0.1102646
         5437.792       0.1103972
         5442.643       0.1105255
         5447.497       0.1106501
         5452.359        0.110776
         5457.225       0.1109031
         5462.092       0.1110267
         5466.964        0.111146
          5471.84       0.1112522
         5476.724       0.1113374
         5481.612       0.1114275
         5486.501       0.1115288
         5491.398       0.1116203
         5496.293       0.1116885
         5501.198       0.1117516
         5506.108       0.1118011
         5511.019       0.1118429
         5515.938       0.1118586
          5520.86        0.111876
         5525.785       0.1119077
         5530.713       0.1119313
         5535.646       0.1119141
         5540.587       0.1119004
         5545.532        0.111923
         5550.478       0.1119394
         5555.432       0.1119094
         5560.387       0.1118776
         5565.347       0.1118426
         5570.313       0.1118034
         5575.282       0.1117259
         5580.258       0.1116492
         5585.238       0.1116185
          5590.22       0.1115834
         5595.206       0.1114835
         5600.197       0.1113784
         5605.198       0.1111884
         5610.197       0.1109949
         5615.201       0.1107363
         5620.213       0.1104787
         5625.226       0.1102758
         5630.246       0.1100684
         5635.268       0.1097959
         5640.294       0.1095235
         5645.328       0.1092749
         5650.367       0.1090221
         5655.406       0.1087304
         5660.451       0.1084402
         5665.502       0.1081793
         5670.559       0.1079092
         5675.617       0.1075757
         5680.679       0.1072543
         5685.752       0.1070203
         5690.823       0.1067796
         5695.899       0.1065088
         5700.979       0.1062285
         5706.064       0.1059134
          5711.16       0.1055868
         5716.254       0.1052268
         5721.353       0.1048669
         5726.456       0.1045104
         5731.567       0.1041414
         5736.682       0.1037463
         5741.799       0.1033466
          5746.92       0.1029394
         5752.053       0.1025504
         5757.183       0.1021907
         5762.318       0.1018006
         5767.458       0.1013736
         5772.602       0.1009475
         5777.757       0.1005217
         5782.911       0.1000713
         5788.068      0.09960087
         5793.237      0.09916288
         5798.401      0.09874476
         5803.577      0.09826046
         5808.753      0.09774591
         5813.937      0.09727722
         5819.126       0.0968219
         5824.316      0.09631169
         5829.511      0.09578862
         5834.711      0.09532155
         5839.918      0.09485833
          5845.13      0.09430069
         5850.344      0.09374346
         5855.562      0.09323743
         5860.792      0.09272337
         5866.016      0.09217812
         5871.251      0.09163352
         5876.488      0.09109824
         5881.732      0.09054575
         5886.982      0.08996097
         5892.232      0.08939339
         5897.491      0.08884901
         5902.749      0.08828738
         5908.017      0.08770845
          5913.29      0.08712806
         5918.563       0.0865463
         5923.846      0.08595525
         5929.133      0.08535948
         5934.421       0.0847882
         5939.714      0.08421995
         5945.012      0.08356269
         5950.318      0.08290351
         5955.629      0.08233554
         5960.941       0.0817496
         5966.258      0.08108634
         5971.579      0.08044768
         5976.909      0.07987048
         5982.243       0.0792459
         5987.579      0.07855707
         5992.923      0.07791618
         5998.271      0.07731526
         6003.622      0.07660355
         6008.976      0.07583879
         6014.336      0.07513085
         6019.704      0.07443538
         6025.076      0.07365745
          6030.45      0.07288154
         6035.832      0.07218338
         6041.219      0.07146113
         6046.604      0.07065971
         6052.001      0.06990065
         6057.399      0.06921627
         6062.805      0.06847667
         6068.216      0.06768619
         6073.628      0.06697019
         6079.046      0.06629023
         6084.468       0.0655114
         6089.898      0.06471007
         6095.333      0.06402486
          6100.77      0.06332569
         6106.215      0.06252941
         6111.665      0.06176627
         6117.112      0.06108063
         6122.572      0.06035569
         6128.033      0.05958803
         6133.502      0.05888044
         6138.976      0.05820659
         6144.452      0.05744186
         6149.936      0.05665488
         6155.417      0.05598595
         6160.911      0.05530212
          6166.41      0.05454355
          6171.91       0.0538209
         6177.418      0.05316549
         6182.932      0.05245339
         6188.443      0.05169216
         6193.966      0.05101042
         6199.491      0.05036034
         6205.024      0.04962062
         6210.562      0.04888093
         6216.101      0.04822767
         6221.649      0.04755415
         6227.195       0.0468355
         6232.756      0.04615472
         6238.315      0.04551475
         6243.879        0.044829
         6249.452      0.04412249
         6255.029      0.04349574
         6260.608      0.04286841
         6266.193      0.04216661
         6271.782      0.04149836
         6277.379      0.04090217
         6282.982      0.04026118
         6288.586      0.03958111
         6294.198      0.03897387
         6299.809      0.03839159
         6305.435      0.03773576
         6311.059       0.0370945
         6316.688      0.03652594
         6322.326      0.03592565
         6327.968      0.03528089
         6333.612      0.03469958
         6339.262      0.03415349
         6344.916      0.03353409
         6350.579      0.03291297
         6356.247      0.03238098
         6361.916      0.03182331
         6367.594      0.03121456
         6373.277      0.03065344
         6378.961      0.03012754
         6384.651       0.0295601
         6390.346      0.02898698
         6396.049       0.0284755
         6401.757      0.02794272
         6407.467      0.02736299
         6413.183      0.02683888
         6418.906      0.02635876
         6424.631      0.02583049
         6430.365      0.02529491
         6436.104      0.02482994
         6441.845      0.02434851
         6447.594      0.02383166
         6453.345      0.02335897
         6459.101      0.02291778
         6464.866      0.02243954
         6470.632      0.02196104
         6476.407       0.0215347
         6482.184      0.02109233
         6487.969      0.02062292
         6493.756      0.02019713
         6499.548      0.01979472
         6505.349      0.01934313
         6511.154      0.01889331
         6516.962      0.01846482
         6522.778      0.01803679
         6528.596      0.01760975
         6534.419       0.0172091
         6540.251      0.01681569
         6546.088      0.01639076
         6551.927      0.01598643
         6557.771      0.01562244
         6563.624      0.01523812
         6569.478      0.01484201
         6575.341      0.01449065
         6581.206      0.01413807
          6587.08      0.01376087
         6592.955       0.0134117
         6598.839      0.01308976
         6604.729      0.01274411
         6610.616      0.01239895
         6616.516      0.01209902
         6622.421      0.01178754
         6628.328      0.01145937
         6634.244      0.01116627
         6640.165       0.0108867
         6646.087      0.01058062
         6652.015        0.010291
         6657.948      0.01003267
         6663.891      0.00975858
         6669.838     0.009476637
         6675.787      0.00923419
         6681.745     0.008983568
         6687.701     0.008710456
          6693.67     0.008469214
         6699.644     0.008248321
          6705.62     0.008001681
         6711.604     0.007763635
         6717.594      0.00755279
         6723.586     0.007329811
         6729.583     0.007098821
         6735.585     0.006905077
         6741.597     0.006710539
         6747.613     0.006505668
         6753.632     0.006310378
          6759.66     0.006121342
         6765.692     0.005929644
         6771.723     0.005745081
         6777.767     0.005577217
         6783.813     0.005407798
         6789.867     0.005237505
         6795.927     0.005074064
         6801.988     0.004914524
         6808.055      0.00476199
         6814.127     0.004613196
         6820.209     0.004466448
         6826.296     0.004324823
         6832.385     0.004183675
         6838.482     0.004042848
         6844.586     0.003912132
         6850.687     0.003791561
         6856.801     0.003721643
         6862.917     0.003651927
         6869.042     0.003582326
         6875.173     0.003512976
         6881.305     0.003443877
         6887.446     0.003374921
         6893.586      0.00330624
         6899.738     0.003237668
         6905.896     0.003169237
         6912.056     0.003091332
         6918.225      0.00299424
         6924.399     0.002891182
         6930.572      0.00278752
         6936.757     0.002698522
         6942.944     0.002607156
         6949.141     0.002513073
         6955.343      0.00243019
         6961.546     0.002348187
          6967.76     0.002262842
         6973.971     0.002186435
         6980.195      0.00211475
         6986.424     0.002035645
         6992.656      0.00196252
         6998.897     0.001897234
         7005.143     0.001826852
         7011.392     0.001757953
         7017.645     0.001697257
         7023.904     0.001633462
         7030.173     0.001568213
         7036.448     0.001514639
         7042.724     0.001459322
         7049.009     0.001401588
         7055.292     0.001351373
         7061.589     0.001301894
         7067.892     0.001250353
         7074.196     0.001204651
          7080.51     0.001161613
         7086.829     0.001115203
          7093.15     0.001072663
         7099.477     0.001033959
         7105.809     9.928640E-4
         7112.151     9.538694E-4
         7118.498     9.192602E-4
         7124.848     8.828213E-4
         7131.207     8.470034E-4
         7137.571     8.159985E-4
         7143.933     7.839206E-4
         7150.309     7.514324E-4
         7156.687     7.240353E-4
         7163.074     6.957113E-4
         7169.467     6.664104E-4
         7175.862     6.415594E-4
         7182.262     6.164304E-4
         7188.668     5.899839E-4
         7195.084     5.673990E-4
         7201.506     5.454868E-4
         7207.929     5.223504E-4
         7214.362     5.019425E-4
         7220.801     4.827003E-4
         7227.237     4.623099E-4
         7233.688     4.438188E-4
         7240.144     4.267548E-4
         7246.601     4.085918E-4
         7253.069     3.918428E-4
         7259.538     3.766643E-4
         7266.017     3.610170E-4
         7272.498     3.463307E-4
         7278.989     3.331654E-4
         7285.481     3.189220E-4
         7291.979     3.053424E-4
         7298.487     2.936571E-4
         7305.001     2.813760E-4
         7311.517     2.694121E-4
         7318.038     2.589761E-4
         7324.569     2.480879E-4
         7331.103     2.373451E-4
         7337.646     2.281138E-4
          7344.19     2.184860E-4
         7350.745     2.088467E-4
         7357.301     2.008071E-4
         7363.867     1.924778E-4
         7370.436     1.840640E-4
         7377.014     1.770435E-4
         7383.593     1.696119E-4
         7390.183     1.618804E-4
         7396.775     1.556649E-4
         7403.372     1.491666E-4
         7409.979     1.423963E-4
         7416.589     1.368204E-4
         7423.208     1.311087E-4
         7429.829     1.252552E-4
          7436.46     1.202246E-4
         7443.097     1.151762E-4
         7449.736     1.100830E-4
         7456.381     1.057949E-4
         7463.036     1.013646E-4
         7469.692     9.672943E-5
         7476.359     9.293983E-5
         7483.027     8.905693E-5
         7489.702     8.500805E-5
         7496.386     8.158987E-5
         7503.077     7.818038E-5
         7509.769     7.474651E-5
         7516.471     7.184481E-5
         7523.175     6.886524E-5
          7529.89     6.577370E-5
         7536.606     6.322291E-5
         7543.328     6.055071E-5
         7550.061     5.774910E-5
         7556.794     5.544210E-5
         7563.539     5.327488E-5
          7570.29     5.123204E-5
         7577.042     4.911404E-5
           7583.8     4.707211E-5
         7590.568     4.508308E-5
         7597.339     4.302872E-5
         7604.119     4.122192E-5
         7610.906     3.956921E-5
         7617.694     3.787056E-5
         7624.489     3.637034E-5
          7631.29     3.493876E-5
           7638.1     3.335931E-5
         7644.917     3.201205E-5
         7651.736     3.072832E-5
         7658.565     2.936111E-5
         7665.396     2.818080E-5
         7672.233     2.704798E-5
         7679.081     2.590765E-5
          7685.93     2.487144E-5
          7692.79     2.381447E-5
         7699.655     2.270407E-5
         7706.523     2.190071E-5
         7713.401     2.104652E-5
         7720.276     2.013187E-5
         7727.167     1.935702E-5
         7734.063     1.857177E-5
         7740.961     1.780162E-5
          7747.87     1.716153E-5
         7754.785     1.641924E-5
         7761.697     1.569335E-5
         7768.625     1.514915E-5
         7775.554     1.452569E-5
         7782.494     1.391522E-5
         7789.439     1.336219E-5
         7796.387     1.282355E-5
         7803.345     1.230292E-5
         7810.301     1.180234E-5
         7817.271     1.132671E-5
         7824.249     1.088632E-5
         7831.227     1.046642E-5
         7838.216     1.003391E-5
         7845.212     9.665433E-6
         7852.209     9.322094E-6
         7859.213     8.984684E-6
         7866.223     8.669934E-6
         7873.244     8.303708E-6
         7880.271     7.879082E-6
         7887.299     7.561712E-6
         7894.338     7.295309E-6
         7901.375     7.039953E-6
         7908.427     6.697939E-6
         7915.485     6.418311E-6
         7922.545     6.189170E-6
         7929.616     6.016862E-6
         7936.693     5.838495E-6
         7943.772     5.604980E-6
         7950.858     5.329413E-6
          7957.95     5.094800E-6
         7965.052     4.954319E-6
         7972.161     4.819651E-6
         7979.271     4.611480E-6
         7986.393     4.458297E-6
         7993.521     4.456066E-6
         8000.646     4.632420E-6
         8007.786     5.124473E-6
         8014.929     5.144914E-6
         8022.082     4.854649E-6
         8029.242     4.320723E-6
         8036.403     4.012557E-6
         8043.576     3.675752E-6
         8050.746     3.319852E-6
         8057.931     3.264847E-6
         8065.123     3.508512E-6
         8072.316     3.635180E-6
         8079.521     3.269055E-6
         8086.731     2.899394E-6
          8093.94     2.843874E-6
         8101.164     2.956401E-6
         8108.389     2.605160E-6
         8115.626     2.545543E-6
         8122.869     2.502132E-6
         8130.114     2.362608E-6
          8137.37     2.498713E-6
         8144.628     2.013328E-6
         8151.893     1.489218E-6
         8159.168     1.838144E-6
         8166.446     1.935107E-6
         8173.734     1.913043E-6
         8181.029     1.872594E-6
         8188.326     2.214407E-6
          8195.63     1.734238E-6
         8202.939     1.447063E-6
         8210.261     1.785127E-6
         8217.588     1.728679E-6
         8224.918     1.993389E-6
         8232.259     2.139632E-6
         8239.602     1.674776E-6
          8246.95     1.906134E-6
         8254.311     1.946220E-6
         8261.673     1.791311E-6
         8269.047     1.523470E-6
         8276.427     1.460235E-6
         8283.809     1.295293E-6
         8291.197     1.097474E-6
         8298.597     1.358459E-6
         8305.999     1.233255E-6
         8313.412     8.490187E-7
         8320.827     3.503993E-7
         8328.253     4.960222E-7
         8335.687     9.951348E-7
         8343.121     1.128853E-6
         8350.563     6.948078E-7
         8358.011     1.204285E-6
         8365.471     1.088571E-6
         8372.937     9.211167E-7
         8380.409     9.992671E-7
         8387.879     6.760567E-7
         8395.365     7.880192E-7
         8402.854     1.048077E-6
         8410.353     1.247681E-6
         8417.859     9.869103E-7
         8425.367     1.169713E-6
         8432.887     1.207868E-6
         8440.408     7.705817E-7
         8447.937     9.857760E-7
         8455.477     9.383917E-7
         8463.019     6.540545E-7
         8470.571     2.197003E-7
         8478.127     4.772411E-7
         8485.693     9.053886E-7
         8493.262     9.753370E-7
         8500.842     5.438757E-7
         8508.425     4.538982E-7
         8516.019     3.581526E-7
         8523.614     2.571463E-7
         8531.221     2.168505E-7
          8538.83     5.150665E-7
         8546.446     8.657497E-7
         8554.074     9.004737E-7
         8561.704     7.834693E-7
         8569.345     1.119049E-6
         8576.993     8.202485E-7
         8584.644     6.473321E-7
         8592.301     7.279893E-7
         8599.969     1.120298E-6
          8607.64     8.900139E-7
         8615.321     5.218085E-7
         8623.006     4.206025E-7
         8630.702     7.436272E-7
         8638.405     2.596698E-7
         8646.105     2.958557E-7
         8653.821     5.510965E-7
          8661.54     7.387916E-7
         8669.271     3.186807E-7
         8677.008     1.189302E-7
         8684.747     1.133827E-7
         8692.493     2.767217E-7
         8700.251     5.723024E-7
         8708.012     9.584213E-7
         8715.783     6.123933E-7
         8723.563     3.575188E-7
         8731.343     4.357414E-7
         8739.136     1.880047E-7
         8746.926     4.643041E-7
         8754.732     6.767920E-7
         8762.546     7.498971E-7
         8770.361     6.897138E-7
         8778.188     2.544335E-7
         8786.019     3.233556E-7
         8793.859     6.259323E-7
         8801.703     9.040039E-7
         8809.554     7.912803E-7
         8817.416     3.984986E-7
         8825.286     4.363532E-7
         8833.157     4.826788E-7
         8841.041     3.054595E-7
         8848.922     6.865036E-7
         8856.819     5.815967E-7
         8864.724     5.348722E-7
         8872.631     5.331344E-7
          8880.55     4.292543E-7
         8888.476     1.561261E-7
         8896.403     2.441670E-7
         8904.338     2.125443E-7
          8912.28     1.325997E-7
         8920.234     3.379372E-7
         8928.195     1.818116E-7
         8936.159     1.236683E-7
         8944.135     3.117674E-7
         8952.117     5.603453E-7
         8960.097     4.222862E-7
         8968.094     1.146177E-7
         8976.093     2.530117E-7
         8984.104     4.283572E-7
         8992.122     4.378096E-7
         9000.143     2.566699E-7
         9008.175     2.088010E-7
         9016.205     1.781467E-7
         9024.252     1.488318E-7
         9032.306     1.497383E-7
         9040.362     2.309839E-7
         9048.431     2.662456E-7
         9056.506     3.579408E-7
         9064.579     5.438948E-7
         9072.669     5.880109E-7
         9080.761     2.884255E-7
         9088.865     6.083982E-7
         9096.978     3.664321E-7
         9105.092     3.866072E-7
         9113.218     4.279296E-7
         9121.341     2.137301E-7
         9129.481     1.249119E-7
          9137.63     5.317755E-7
          9145.78     4.657894E-7
         9153.942     2.334225E-7
         9162.112     1.926209E-7
         9170.284     5.616556E-7
         9178.464     4.886222E-7
         9186.655     4.622960E-7
         9194.849     4.086959E-7
         9203.056     2.737217E-7
         9211.264     1.446651E-7
         9219.485     5.489541E-7
         9227.708     3.706526E-7
         9235.938     2.220812E-7
         9244.182     2.054502E-7
         9252.427     2.474987E-7
         9260.685     2.056648E-7
         9268.949     3.585336E-7
         9277.217     2.105729E-7
         9285.492     1.073085E-7
         9293.779     8.792035E-8
         9302.068     1.388054E-7
          9310.37     2.605473E-7
         9318.675     4.171004E-7
         9326.991     4.435755E-7
         9335.315     2.243682E-7
         9343.637     5.417185E-8
         9351.977     1.223741E-7
         9360.317     2.432249E-7
         9368.672     9.918138E-8
         9377.033     3.085852E-7
         9385.396     3.057442E-7
         9393.768     2.540570E-7
         9402.152     2.740254E-7
         9410.538     1.606090E-7
         9418.937     1.915511E-7
         9427.338     4.150930E-7
         9435.752     3.683367E-7
         9444.173     2.628579E-7
         9452.592     2.216738E-7
         9461.028     1.738617E-7
         9469.472     2.752561E-7
         9477.918     1.976501E-7
         9486.377     2.048577E-7
         9494.838     1.881335E-7
         9503.313     1.447764E-7
         9511.788     1.398303E-7
         9520.272     1.986240E-7
          9528.77     2.366377E-7
         9537.269     3.590337E-7
          9545.78     3.628132E-7
           9554.3     2.932506E-7
         9562.821     2.402865E-7
         9571.351     2.560618E-7
         9579.894     3.427022E-7
         9588.438     2.208407E-7
         9596.995     2.711581E-7
         9605.561     2.844080E-7
         9614.128     3.227364E-7
         9622.704     3.938051E-7
         9631.286     3.759090E-7
         9639.882     2.895138E-7
         9648.485     7.569719E-8
         9657.092     1.635992E-7
         9665.711     2.553467E-7
         9674.332     2.069260E-7
         9682.961     1.461291E-7
         9691.603     2.348401E-7
         9700.252     2.038784E-7
         9708.904     2.051783E-7
         9717.569     8.853965E-8
         9726.237     2.569397E-7
         9734.912     3.323759E-7
         9743.601     3.088235E-7
         9752.291     2.999905E-7
         9760.995     1.298756E-7
         9769.701     6.033559E-8
         9778.421     1.054676E-7
         9787.147     1.837495E-7
         9795.872     2.975320E-7
         9804.614     2.595380E-7
         9813.359     1.466350E-7
         9822.118     1.639667E-7
         9830.884     2.306528E-7
         9839.652     1.561396E-7
         9848.435     2.309884E-7
         9857.219     1.414428E-7
         9866.011     1.782912E-7
         9874.816     1.329958E-7
         9883.624     1.231477E-7
         9892.444     2.426243E-7
         9901.273     1.414866E-7
         9910.104     1.281978E-7
         9918.944     9.357712E-8
         9927.791     1.479623E-7
         9936.651     2.656377E-7
         9945.521     2.526799E-7
         9954.391     1.929068E-7
         9963.275     1.859497E-7
         9972.162     1.905362E-7
         9981.057     1.657629E-7
         9989.964     1.785926E-7
          9998.88     1.715409E-7
          10007.8     1.701571E-7
         10016.72     2.102369E-7
         10025.67     1.966918E-7
          10034.6     1.828359E-7
         10043.56     1.863939E-7
         10052.52     1.664892E-7
         10061.49     1.541796E-7
         10070.47     1.652624E-7
         10079.46     1.882781E-7
         10088.45     2.057589E-7
         10097.44     1.981724E-7
         10106.46     1.841838E-7
         10115.48     1.664841E-7
          10124.5     1.473408E-7
         10133.53     1.575494E-7
         10142.58     1.822948E-7
         10151.62     1.464040E-7
         10160.68     1.555008E-7
         10169.74     1.579957E-7
         10178.81     1.483599E-7
          10187.9     1.404498E-7
         10196.99     1.394751E-7
         10206.08     1.476942E-7
         10215.19     1.756782E-7
         10224.31     1.755539E-7
         10233.43     1.506345E-7
         10242.56     1.476811E-7
         10251.69     1.294996E-7
         10260.85     1.245915E-7
           10270.     1.300588E-7
         10279.16     1.234695E-7
         10288.33     1.256490E-7
         10297.51     1.191784E-7
          10306.7     1.364483E-7
         10315.89     1.397755E-7
          10325.1     1.327481E-7
          10334.3     1.209791E-7
         10343.53     1.034509E-7
         10352.76     1.022701E-7
         10361.99     1.237504E-7
         10371.25     1.148744E-7
          10380.5     1.271824E-7
         10389.76     1.152723E-7
         10399.02     1.172220E-7
          10408.3     1.026019E-7
         10417.59     8.923806E-8
         10426.89     8.651984E-8
         10436.19     8.393010E-8
         10445.49     8.048922E-8
         10454.82     7.761738E-8
         10464.15     7.719977E-8
         10473.48     7.741607E-8
         10482.82     7.333976E-8
         10492.17     6.419556E-8
         10501.54     5.191393E-8
         10510.91     5.972824E-8
         10520.29     5.932931E-8
         10529.67     5.941862E-8
         10539.07     4.940120E-8
         10548.47     5.311175E-8
         10557.88     5.020372E-8
         10567.31     5.464883E-8
         10576.73     5.070077E-8
         10586.17     5.318993E-8
         10595.61     5.711112E-8
         10605.06     5.570666E-8
         10614.53     5.122989E-8
           10624.     5.124770E-8
         10633.48     5.408207E-8
         10642.96     5.287981E-8
         10652.45     5.510280E-8
         10661.97     4.932424E-8
         10671.48     5.034853E-8
         10680.99     4.884221E-8
         10690.53     5.415116E-8
         10700.07     4.715848E-8
         10709.61     4.728588E-8
         10719.16     5.179708E-8
         10728.72     5.370120E-8
         10738.31     5.312285E-8
         10747.88     4.594346E-8
         10757.47     4.553242E-8
         10767.08     4.683886E-8
         10776.67     4.727357E-8
         10786.29     4.670962E-8
         10795.91     4.533772E-8
         10805.54     4.359831E-8
         10815.18     4.289671E-8
         10824.83     4.252405E-8
         10834.49     4.216325E-8
         10844.17     4.240013E-8
         10853.84     4.066828E-8
         10863.52     3.731583E-8
         10873.21     3.662264E-8
         10882.91     3.595000E-8
         10892.63     3.362486E-8
         10902.35     3.426408E-8
         10912.07     3.338067E-8
         10921.81     3.119922E-8
         10931.54     3.030956E-8
         10941.31     3.003639E-8
         10951.07     2.876409E-8
         10960.83     2.592517E-8
         10970.62     2.496269E-8
         10980.39     2.534764E-8
          10990.2     2.160056E-8
           11000.     2.080747E-8
