#  Table wf3f380wsys.tab  Mon 12:22:15 02-Jun-97

#      WAVELENGTH      THROUGHPUT
#       angstroms                

            1850.     1.124375E-6
         1851.651     9.498082E-7
         1853.301     7.736327E-7
         1854.956     5.953281E-7
         1856.611     4.154622E-7
         1858.267     2.337763E-7
         1859.925     5.015159E-8
         1861.584     8.687094E-8
         1863.246     1.345150E-7
         1864.909     1.826384E-7
         1866.572     2.312080E-7
         1868.237     2.802614E-7
         1869.904     3.298270E-7
         1871.573     3.473381E-7
         1873.242     3.630140E-7
         1874.913     3.788358E-7
         1876.585     3.948051E-7
          1878.26     4.109349E-7
         1879.937     4.270446E-7
         1881.613     3.812418E-7
         1883.292     3.325809E-7
         1884.973     2.834560E-7
         1886.654     2.339230E-7
         1888.338     1.839189E-7
         1890.023     1.342741E-7
         1891.709     1.423878E-7
         1893.396     1.505696E-7
         1895.086     1.588239E-7
         1896.775     1.671359E-7
         1898.469     1.755318E-7
         1900.163     1.843109E-7
         1901.857     1.961478E-7
         1903.555     2.080994E-7
         1905.254     2.201514E-7
         1906.953     2.322957E-7
         1908.655     2.445482E-7
         1910.357     2.496542E-7
         1912.061     2.273959E-7
         1913.768     2.049209E-7
         1915.476     1.822394E-7
         1917.184     1.593656E-7
         1918.894     1.362840E-7
         1920.606     1.176530E-7
          1922.32     1.073911E-7
         1924.035     9.703521E-8
         1925.752     8.659003E-8
          1927.47     7.604412E-8
         1929.189     6.540841E-8
          1930.91     6.055255E-8
         1932.634     6.091002E-8
         1934.358     6.126890E-8
         1936.084     6.162900E-8
         1937.811     6.199057E-8
          1939.54     6.235383E-8
          1941.27     7.296686E-8
         1943.003     8.741090E-8
         1944.737     1.019815E-7
          1946.47     1.166603E-7
         1948.207     1.314841E-7
         1949.947     1.464442E-7
         1951.685     1.274876E-7
         1953.427     1.072600E-7
         1955.171     8.685008E-8
         1956.913     6.628179E-8
          1958.66     4.550408E-8
         1960.408     2.854450E-8
         1962.157     2.465348E-8
         1963.908     2.072466E-8
         1965.658     1.676533E-8
         1967.413     1.276571E-8
         1969.169     8.730075E-9
         1970.925     7.950589E-9
         1972.684     1.013568E-8
         1974.444     1.233850E-8
         1976.205     1.456047E-8
         1977.969     1.680432E-8
         1979.734     1.906482E-8
           1981.5     2.556196E-8
         1983.268     3.287276E-8
         1985.037     4.024304E-8
         1986.809     4.768114E-8
         1988.581     5.517857E-8
         1990.355     6.048693E-8
         1992.131     5.678354E-8
         1993.908     5.304607E-8
         1995.688     4.926972E-8
         1997.467     4.546607E-8
          1999.25     4.162327E-8
         2001.034     3.847802E-8
         2002.818     3.583811E-8
         2004.606     3.316540E-8
         2006.396     3.046607E-8
         2008.184     2.774209E-8
         2009.976     2.498643E-8
         2011.769     2.411504E-8
         2013.565     2.325935E-8
         2015.362     2.239424E-8
         2017.158     2.152080E-8
         2018.958     2.063683E-8
          2020.76     2.162295E-8
         2022.563     2.520444E-8
         2024.368     2.882321E-8
         2026.173     3.247451E-8
         2027.982     3.616348E-8
         2029.791     3.988557E-8
         2031.602     4.223790E-8
         2033.414     4.442600E-8
         2035.228     4.663423E-8
         2037.044     4.886405E-8
         2038.861     5.111286E-8
         2040.681     5.058973E-8
         2042.502     4.536303E-8
         2044.324     4.008700E-8
         2046.147     3.475896E-8
         2047.974     2.937467E-8
           2049.8     2.394069E-8
          2051.63     2.261459E-8
         2053.461     2.178804E-8
         2055.291     2.095389E-8
         2057.125     2.011022E-8
         2058.961     1.925786E-8
         2060.798     1.992433E-8
         2062.637     2.259626E-8
         2064.477     2.529100E-8
         2066.318     2.801008E-8
         2068.164     3.075726E-8
         2070.007     3.350572E-8
         2071.855     3.144045E-8
         2073.704     2.935545E-8
         2075.553     2.725176E-8
         2077.405     2.512819E-8
         2079.259     2.298264E-8
         2081.113     2.235839E-8
         2082.971     2.275848E-8
         2084.829     2.316135E-8
         2086.688     2.356721E-8
          2088.55     2.397640E-8
         2090.414     2.466384E-8
         2092.279     2.632339E-8
         2094.145     2.799649E-8
         2096.014     2.968495E-8
         2097.885     3.138732E-8
         2099.756     3.310275E-8
          2101.63     3.421957E-8
         2103.503     3.525160E-8
         2105.381     3.629271E-8
          2107.26     3.734207E-8
         2109.139     3.839883E-8
         2111.022     3.942224E-8
         2112.906     4.041776E-8
         2114.789     4.141937E-8
         2116.677     4.242971E-8
         2118.564     4.344685E-8
         2120.455     4.383278E-8
         2122.348     4.219633E-8
         2124.241     4.054732E-8
         2126.135     3.888422E-8
         2128.033     3.720629E-8
         2129.932     3.551412E-8
         2131.832     3.472595E-8
         2133.734     3.396502E-8
         2135.637     3.319780E-8
         2137.544     3.242316E-8
          2139.45     3.164992E-8
         2141.359     2.940425E-8
          2143.27     2.654232E-8
         2145.182     2.365900E-8
         2147.096     2.075125E-8
         2149.011     1.782227E-8
         2150.929     1.557639E-8
         2152.848     1.407093E-8
         2154.768     1.255406E-8
         2156.692     1.102380E-8
         2158.615     9.484950E-9
         2160.541     8.963197E-9
         2162.469     1.108625E-8
         2164.397     1.322134E-8
          2166.33     1.537530E-8
         2168.263     1.754307E-8
         2170.196     1.958463E-8
         2172.133     2.041294E-8
          2174.07     2.124580E-8
         2176.011     2.208450E-8
         2177.953     2.292843E-8
         2179.895     2.377698E-8
          2181.84     2.338149E-8
         2183.787     2.291173E-8
         2185.735     2.243913E-8
         2187.686     2.196321E-8
         2189.637     2.148450E-8
          2191.59     2.279108E-8
         2193.546     2.451577E-8
         2195.503     2.624961E-8
         2197.462     2.799200E-8
         2199.423     2.974513E-8
         2201.385     2.847023E-8
         2203.348     2.589243E-8
         2205.315     2.326693E-8
         2207.283     2.059537E-8
         2209.252     1.787920E-8
         2211.222     1.604956E-8
         2213.196     1.476386E-8
          2215.17     1.345707E-8
         2217.147     1.212714E-8
         2219.125     1.077491E-8
         2221.104     9.750053E-9
         2223.086     8.985427E-9
         2225.071     8.207732E-9
         2227.055     7.418838E-9
         2229.042     6.616259E-9
         2231.031     7.446919E-9
         2233.021     9.830599E-9
         2235.015     1.225167E-8
         2237.008     1.470439E-8
         2239.003     1.719215E-8
         2241.002     1.888485E-8
         2242.999     1.976580E-8
         2245.002     2.065937E-8
         2247.005     2.156304E-8
         2249.009     2.247792E-8
         2251.016     2.249899E-8
         2253.024     2.162980E-8
         2255.033     2.074722E-8
         2257.046     1.985052E-8
         2259.061     1.894029E-8
         2261.075     1.823831E-8
         2263.092     1.772046E-8
         2265.112     1.719426E-8
         2267.134     1.665997E-8
         2269.156     1.611796E-8
         2271.181     1.561165E-8
         2273.207     1.512994E-8
         2275.234     1.464116E-8
         2277.266     1.414466E-8
         2279.296     1.364203E-8
          2281.33     1.477650E-8
         2283.366     1.680016E-8
         2285.402     1.884548E-8
         2287.441     2.091747E-8
         2289.483     2.301355E-8
         2291.525     2.401903E-8
          2293.57     2.465570E-8
         2295.615     2.529786E-8
         2297.663     2.595405E-8
         2299.715     2.661904E-8
         2301.765     2.721337E-8
          2303.82     2.780198E-8
         2305.876     2.839627E-8
         2307.932     2.899591E-8
         2309.992     2.960173E-8
         2312.051     3.141884E-8
         2314.116     3.326419E-8
          2316.18     3.512784E-8
         2318.246     3.701162E-8
         2320.315     3.820041E-8
         2322.385     3.538441E-8
         2324.457     3.253180E-8
         2326.531     2.964609E-8
         2328.606     2.672513E-8
         2330.685     2.450637E-8
         2332.764     2.377904E-8
         2334.845     2.304215E-8
         2336.927     2.229583E-8
         2339.012     2.153996E-8
         2341.101     1.991955E-8
         2343.188     1.751189E-8
         2345.279     1.507624E-8
         2347.372     1.261131E-8
         2349.467     1.011869E-8
         2351.562     1.158211E-8
         2353.661     1.443016E-8
         2355.759     1.730455E-8
         2357.862     2.021311E-8
         2359.966     2.315197E-8
         2362.071     2.328768E-8
         2364.179     2.337694E-8
         2366.288     2.346614E-8
         2368.398     2.355535E-8
         2370.512     2.407480E-8
         2372.628     2.595207E-8
         2374.744     2.784640E-8
         2376.863     2.976024E-8
         2378.983     3.169147E-8
         2381.105     3.381407E-8
          2383.23     3.611842E-8
         2385.357     3.844429E-8
         2387.485     4.079070E-8
         2389.615     4.315878E-8
         2391.747     4.465340E-8
         2393.881     4.596125E-8
         2396.017     4.728103E-8
         2398.154     4.861111E-8
         2400.293     4.972605E-8
         2402.435     4.941625E-8
          2404.58     4.910195E-8
         2406.724     4.878336E-8
         2408.872     4.846011E-8
         2411.022     4.725155E-8
         2413.171     4.505666E-8
         2415.326     4.283628E-8
         2417.479     4.059863E-8
         2419.637     3.833629E-8
         2421.796     4.077934E-8
         2423.957     4.420107E-8
          2426.12     4.765408E-8
         2428.284     5.113417E-8
         2430.451     5.332466E-8
         2432.619     5.048063E-8
         2434.789     4.761080E-8
         2436.962     4.471281E-8
         2439.136     4.178881E-8
         2441.312     3.724322E-8
          2443.49     3.160290E-8
          2445.67     2.591050E-8
         2447.853     2.016832E-8
         2450.036     1.452677E-8
         2452.222     1.745811E-8
         2454.409     2.041356E-8
           2456.6     2.339521E-8
         2458.792     2.640084E-8
         2460.985     2.751899E-8
          2463.18     2.629270E-8
         2465.379     2.505489E-8
         2467.579     2.380648E-8
         2469.778     2.254885E-8
         2471.983     2.212264E-8
          2474.19     2.178708E-8
         2476.396     2.144891E-8
         2478.606     2.110711E-8
         2480.817     2.136477E-8
         2483.029     2.265697E-8
         2485.247     2.396077E-8
         2487.462     2.527200E-8
         2489.682     2.659475E-8
         2491.904     2.807656E-8
         2494.125     2.959252E-8
         2496.353     3.112277E-8
         2498.579     3.266263E-8
         2500.808     3.287266E-8
          2503.04     3.071378E-8
         2505.272     2.853863E-8
         2507.509     2.634404E-8
         2509.745     2.413332E-8
         2511.985     2.590068E-8
         2514.225     2.819605E-8
         2516.468     3.050916E-8
         2518.714     3.284108E-8
         2520.962     3.344438E-8
          2523.21     3.170749E-8
         2525.462     2.995517E-8
         2527.715     2.818967E-8
         2529.971     2.640862E-8
         2532.229     2.747166E-8
         2534.486     2.857891E-8
         2536.748     2.969559E-8
          2539.01     3.076912E-8
         2541.277     2.982542E-8
         2543.545     2.731101E-8
         2545.813     2.478730E-8
         2548.084     2.225296E-8
         2550.358     2.026413E-8
         2552.635     2.125641E-8
         2554.911     2.225173E-8
         2557.191     2.325161E-8
         2559.471     2.425408E-8
         2561.755     2.522995E-8
         2564.042     2.620006E-8
         2566.329     2.717329E-8
         2568.619     2.815065E-8
         2570.908     2.840021E-8
         2573.205     2.753571E-8
           2575.5     2.666853E-8
         2577.797     2.579729E-8
         2580.097     2.489849E-8
         2582.399     2.346941E-8
         2584.704     2.203307E-8
          2587.01     2.059072E-8
         2589.318     1.914282E-8
         2591.629     1.990456E-8
          2593.94     2.159917E-8
         2596.254     2.330033E-8
         2598.573     2.501053E-8
         2600.889     2.749942E-8
          2603.21     3.125086E-8
         2605.532     3.501514E-8
         2607.856     3.879497E-8
         2610.185     4.197168E-8
         2612.512     3.792217E-8
         2614.843     3.385041E-8
         2617.177     2.976070E-8
          2619.51     2.565826E-8
         2621.849     2.629905E-8
         2624.188     2.820689E-8
         2626.528     3.012238E-8
         2628.873     3.204691E-8
         2631.217     3.215301E-8
         2633.566     3.056345E-8
         2635.916     2.896671E-8
         2638.267     2.736365E-8
          2640.62     2.603528E-8
         2642.977     2.549030E-8
         2645.334     2.494293E-8
         2647.695     2.439256E-8
         2650.057     2.379798E-8
         2652.422     2.149906E-8
         2654.788     1.919146E-8
         2657.157     1.687211E-8
         2659.526     1.454537E-8
         2661.899     1.433557E-8
         2664.275     1.465771E-8
         2666.652     1.498084E-8
         2669.031     1.530533E-8
         2671.412     1.494945E-8
         2673.796     1.412276E-8
         2676.181     1.329289E-8
          2678.57     1.245875E-8
          2680.96     1.294779E-8
          2683.35     1.541770E-8
         2685.746     1.790238E-8
          2688.14     2.039293E-8
          2690.54     2.332155E-8
         2692.941     2.772930E-8
         2695.343     3.215333E-8
         2697.748     3.659805E-8
         2700.153     4.046439E-8
         2702.563     3.561207E-8
         2704.975     3.072401E-8
         2707.387     2.580261E-8
         2709.804     2.084130E-8
         2712.222     2.218094E-8
         2714.642     2.409007E-8
         2717.063     2.601245E-8
         2719.486     2.794850E-8
         2721.915     2.984455E-8
         2724.343     3.173657E-8
         2726.772     3.364173E-8
         2729.205     3.556008E-8
          2731.64     3.309669E-8
         2734.078     2.847447E-8
         2736.517     2.382103E-8
         2738.958     1.913400E-8
         2741.402     1.643762E-8
         2743.849     1.523491E-8
         2746.296     1.402408E-8
         2748.747     1.280354E-8
         2751.198     1.226913E-8
         2753.653     1.245890E-8
         2756.111     1.264914E-8
         2758.569     1.283972E-8
         2761.031     1.287942E-8
         2763.495     1.270859E-8
         2765.958     1.253752E-8
         2768.427     1.236581E-8
         2770.898     1.279627E-8
         2773.369     1.428419E-8
         2775.844     1.577665E-8
          2778.32     1.727191E-8
         2780.799     2.049972E-8
          2783.28     2.738091E-8
         2785.764     3.427950E-8
         2788.249     4.119009E-8
         2790.736     4.511418E-8
         2793.227     4.188835E-8
          2795.72     3.865477E-8
         2798.213     3.541534E-8
         2800.709     3.412296E-8
         2803.209     3.776199E-8
         2805.709     4.140739E-8
         2808.213     4.506386E-8
         2810.718     4.791979E-8
         2813.226     4.877177E-8
         2815.736     4.962516E-8
         2818.247     5.048048E-8
         2820.764     5.191874E-8
         2823.278     5.468798E-8
         2825.798     5.746692E-8
          2828.32     6.025209E-8
         2830.843     5.836548E-8
         2833.369     4.713200E-8
         2835.898     3.587234E-8
         2838.426     2.460171E-8
         2840.959     2.105982E-8
         2843.495     3.027871E-8
         2846.031     3.951228E-8
         2848.571     4.877301E-8
         2851.112     5.089244E-8
         2853.655     4.380426E-8
         2856.202     3.669672E-8
         2858.751     2.957389E-8
         2861.301     2.804469E-8
         2863.853     3.190411E-8
         2866.407     3.577204E-8
         2868.965     3.965071E-8
         2871.526     3.953413E-8
         2874.087     3.670058E-8
         2876.652     3.385901E-8
         2879.218     3.101344E-8
         2881.788     3.169553E-8
         2884.358     3.392694E-8
         2886.931     3.616312E-8
         2889.507     3.840514E-8
         2892.084     3.911473E-8
         2894.666     3.946223E-8
         2897.248     3.981021E-8
         2899.832     4.015885E-8
         2902.421     4.379451E-8
          2905.01     4.764738E-8
         2907.601     5.149391E-8
         2910.198     5.486004E-8
          2912.79     5.242105E-8
         2915.392     4.997984E-8
         2917.992     4.754564E-8
         2920.594     4.542008E-8
         2923.203     4.432511E-8
         2925.807     4.323443E-8
          2928.42     4.214284E-8
         2931.033     4.359752E-8
         2933.646     4.893223E-8
         2936.266     5.426663E-8
         2938.885     5.958421E-8
         2941.506     5.496266E-8
         2944.131     4.299337E-8
         2946.757     3.105342E-8
         2949.387     1.912853E-8
         2952.018     1.872103E-8
         2954.653     2.180250E-8
          2957.29     2.487797E-8
         2959.926     2.794369E-8
         2962.567     3.860834E-8
          2965.21     4.946574E-8
         2967.856     6.030672E-8
         2970.505     6.878308E-8
         2973.155     6.730048E-8
         2975.808     6.581948E-8
         2978.461     6.434298E-8
         2981.121     6.194769E-8
          2983.78     5.830041E-8
         2986.441     5.466032E-8
         2989.104     5.102778E-8
         2991.772     5.177235E-8
         2994.442     5.472228E-8
         2997.113     5.766402E-8
         2999.788     6.060102E-8
         3002.464     4.984370E-8
         3005.142     3.793440E-8
         3007.826     2.603565E-8
         3010.507     1.768772E-8
         3013.194     2.438072E-8
         3015.883     3.105875E-8
         3018.573     3.771747E-8
         3021.267     4.267357E-8
          3023.96     4.570975E-8
          3026.66     4.874420E-8
          3029.36     5.176780E-8
         3032.062     5.643986E-8
          3034.77     6.162072E-8
         3037.475     6.677969E-8
         3040.186     7.117404E-8
         3042.897     6.528055E-8
         3045.612     5.940009E-8
         3048.332     5.352591E-8
         3051.051     5.159559E-8
         3053.772     5.589451E-8
         3056.497     6.018556E-8
         3059.222     6.445990E-8
         3061.954     6.386427E-8
         3064.685     6.133567E-8
         3067.418     5.881271E-8
         3070.156     5.604133E-8
         3072.896     4.909424E-8
         3075.637     4.216806E-8
          3078.38     3.525982E-8
         3081.126     3.278237E-8
         3083.877     3.666027E-8
         3086.628     4.052333E-8
         3089.381     4.437562E-8
         3092.137     4.700866E-8
         3094.895     4.928444E-8
         3097.659     5.155660E-8
         3100.422     5.495071E-8
         3103.187     6.464825E-8
         3105.955     7.438352E-8
         3108.729     8.416866E-8
         3111.501     8.387238E-8
         3114.277     7.499280E-8
         3117.056     6.607274E-8
         3119.836     5.712382E-8
         3122.621     8.758842E-8
         3125.406     1.206268E-7
         3128.195     1.538113E-7
         3130.985     1.995265E-7
         3133.778     2.682302E-7
         3136.575     3.372426E-7
         3139.373     4.064800E-7
         3142.175     5.592817E-7
         3144.979     7.367408E-7
         3147.784     9.147980E-7
         3150.592     1.165606E-6
         3153.405     1.688656E-6
         3156.218     2.213051E-6
         3159.035     2.739845E-6
         3161.851     3.551856E-6
         3164.674     4.517256E-6
         3167.497     5.485225E-6
         3170.322     6.608770E-6
         3173.152     8.920058E-6
         3175.982     1.123906E-5
         3178.816     1.356841E-5
         3181.652     1.671184E-5
          3184.49     2.044622E-5
         3187.333     2.420022E-5
         3190.175     2.818916E-5
         3193.022     3.568706E-5
          3195.87     4.321001E-5
         3198.722     5.076648E-5
         3201.577     6.008540E-5
         3204.433     7.084265E-5
         3207.291     8.164129E-5
         3210.151     9.289331E-5
         3213.018     1.116033E-4
         3215.884     1.303618E-4
         3218.752     1.491944E-4
         3221.623     1.709659E-4
         3224.499     1.950457E-4
         3227.376     2.192200E-4
         3230.255     2.446701E-4
         3233.136     2.825586E-4
          3236.02     3.205962E-4
         3238.908     3.588060E-4
         3241.799     4.003133E-4
          3244.69     4.438722E-4
         3247.584     4.876064E-4
         3250.485     5.347031E-4
         3253.384     5.976059E-4
         3256.286     6.607558E-4
         3259.192     7.241906E-4
         3262.097     7.904098E-4
          3265.01     8.580314E-4
         3267.922     9.258274E-4
         3270.837     9.835970E-4
         3273.758      0.00101603
         3276.675     0.001048504
         3279.601     0.001081186
         3282.526     0.001113943
         3285.454     0.001146828
         3288.388     0.001179878
         3291.319     0.001237602
         3294.257     0.001328298
         3297.195     0.001416544
         3300.137      0.00150832
         3303.083     0.001603333
         3306.029      0.00169892
         3308.979     0.001802269
         3311.931     0.001904436
         3314.885     0.002005235
         3317.844     0.002115784
         3320.803     0.002229848
         3323.767     0.002344419
         3326.731     0.002463133
           3329.7     0.002586501
          3332.67      0.00270505
         3335.643     0.002836395
         3338.622     0.002973861
         3341.599     0.003105879
          3344.58       0.0032477
         3347.563     0.003399535
         3350.551     0.003548383
         3353.541     0.003698604
         3356.532     0.003852569
         3359.528     0.004012213
         3362.524     0.004183597
         3365.525     0.004354043
         3368.527     0.004538538
         3371.532     0.004728901
         3374.541     0.004912705
         3377.551     0.005101615
         3380.565     0.005303953
         3383.582     0.005516433
         3386.598     0.005724148
         3389.623     0.005941439
         3392.646     0.006155196
         3395.672     0.006349513
         3398.705     0.006524071
         3401.732     0.006839465
          3404.77     0.007076118
         3407.807       0.0073241
         3410.847      0.00756885
         3413.893     0.007815124
         3416.938     0.008072073
         3419.985     0.008330515
         3423.038     0.008579547
         3426.089     0.008837927
         3429.148      0.00909498
         3432.207     0.009344678
         3435.268     0.009595399
         3438.334     0.009846569
         3441.401      0.01009576
         3444.473      0.01034971
         3447.545      0.01060116
         3450.622      0.01084919
         3453.701       0.0110857
         3456.782      0.01131532
         3459.865      0.01153686
         3462.951      0.01175234
         3466.042      0.01196872
         3469.135      0.01218366
         3472.229      0.01239897
         3475.326      0.01260314
         3478.426      0.01279505
         3481.532      0.01298321
         3484.638      0.01317432
         3487.746       0.0133672
         3490.859      0.01354652
         3493.972      0.01372475
         3497.091      0.01390188
          3500.21      0.01407916
         3503.334      0.01424951
          3506.46      0.01441359
         3509.586      0.01458052
          3512.72      0.01474514
         3515.852      0.01490603
         3518.989      0.01507149
          3522.13      0.01525182
         3525.271      0.01542886
         3528.418      0.01560361
         3531.563      0.01577216
         3534.717      0.01594451
          3537.87      0.01612186
         3541.025      0.01630219
         3544.188      0.01649235
         3547.349      0.01667175
         3550.513      0.01685422
         3553.679      0.01704588
         3556.849      0.01724141
         3560.026      0.01744341
         3563.201      0.01765055
         3566.379      0.01784945
         3569.562      0.01806007
         3572.746      0.01827921
         3575.935      0.01850151
         3579.124      0.01873789
         3582.316      0.01895471
         3585.513      0.01917352
         3588.714      0.01939643
         3591.915      0.01962924
         3595.118      0.01986081
         3598.325      0.02008359
         3601.538      0.02031126
         3604.751      0.02054364
         3607.966      0.02077235
         3611.184      0.02101205
         3614.409      0.02126073
         3617.633      0.02148524
         3620.859      0.02170828
         3624.089      0.02193416
         3627.322      0.02215508
         3630.561      0.02238077
         3633.799      0.02259107
          3637.04      0.02280698
         3640.286      0.02301226
         3643.533      0.02320181
         3646.785      0.02339221
         3650.038      0.02358324
         3653.295      0.02377234
         3656.556      0.02394164
         3659.815      0.02411933
         3663.082      0.02429535
         3666.353      0.02445944
         3669.621       0.0246114
         3672.896      0.02476818
         3676.172      0.02492549
         3679.451      0.02508339
         3682.737      0.02522871
         3686.022      0.02536173
         3689.309      0.02548741
           3692.6      0.02561401
         3695.896      0.02573549
         3699.194      0.02587517
         3702.494      0.02600721
         3705.798      0.02612438
         3709.101      0.02625349
         3712.412      0.02637928
         3715.725      0.02650622
         3719.039      0.02661957
         3722.358      0.02674163
         3725.678      0.02685762
         3729.004      0.02698236
          3732.33      0.02710243
         3735.659      0.02722379
         3738.995      0.02735157
          3742.33      0.02748646
         3745.668      0.02762607
         3749.009      0.02775514
         3752.354      0.02789087
         3755.703      0.02804055
         3759.053      0.02818136
         3762.408      0.02832259
         3765.764      0.02846931
         3769.125      0.02860635
         3772.487      0.02876073
         3775.852      0.02891801
         3779.222      0.02907912
         3782.594      0.02924155
         3785.968       0.0293981
         3789.345       0.0295575
         3792.725      0.02972282
         3796.112      0.02990912
         3799.498      0.03007879
         3802.887      0.03024414
         3806.279      0.03042134
         3809.676      0.03059346
         3813.076       0.0307621
         3816.477      0.03092321
         3819.881      0.03111061
          3823.29      0.03129039
           3826.7       0.0314685
         3830.116      0.03165055
         3833.532      0.03182626
         3836.951      0.03199728
         3840.378      0.03216611
         3843.803      0.03232586
         3847.232      0.03250559
         3850.663      0.03267514
         3854.102      0.03283956
          3857.54      0.03301323
          3860.98      0.03321094
         3864.426      0.03338402
         3867.875      0.03354677
         3871.325      0.03370637
         3874.778      0.03386285
         3878.234       0.0340198
         3881.695      0.03416549
         3885.157      0.03432105
         3888.625      0.03447554
         3892.094      0.03462808
         3895.565      0.03476701
         3899.044      0.03490468
         3902.521      0.03504998
         3906.002      0.03519852
         3909.489      0.03532427
         3912.975      0.03543884
         3916.468      0.03557304
         3919.961      0.03569693
         3923.457      0.03580233
         3926.961      0.03591934
         3930.462      0.03602659
         3933.969      0.03615385
         3937.478       0.0362467
         3940.992      0.03634768
          3944.51      0.03644129
         3948.028      0.03652383
          3951.55      0.03662076
         3955.074      0.03672041
         3958.606      0.03680613
         3962.137      0.03689406
         3965.671      0.03696173
          3969.21      0.03702426
          3972.75       0.0370889
         3976.296      0.03716738
         3979.843      0.03723499
         3983.395      0.03729331
          3986.95      0.03735097
         3990.504      0.03740045
         3994.065      0.03743745
          3997.63      0.03749359
         4001.196      0.03751644
         4004.767      0.03749171
         4008.339      0.03747679
         4011.914      0.03744479
         4015.494      0.03741728
         4019.078      0.03738661
         4022.663      0.03734633
         4026.251      0.03729163
         4029.844      0.03724796
         4033.441      0.03721294
         4037.039      0.03718385
         4040.639      0.03713961
         4044.243      0.03711981
         4047.855      0.03709024
         4051.465      0.03706621
         4055.079      0.03703292
         4058.698      0.03699601
         4062.316      0.03695218
         4065.944      0.03692133
          4069.57      0.03689048
           4073.2      0.03687176
         4076.838      0.03684816
         4080.472      0.03681323
         4084.114      0.03676355
         4087.756        0.036726
         4091.405      0.03669781
         4095.056      0.03668172
         4098.708      0.03664227
         4102.367      0.03659608
         4106.026      0.03656852
         4109.688      0.03654078
         4113.356      0.03649944
         4117.025      0.03644777
         4120.699      0.03640916
         4124.375        0.036363
         4128.056      0.03630174
         4131.738      0.03626149
         4135.423      0.03620305
         4139.116      0.03615501
         4142.808      0.03611231
         4146.503       0.0360591
         4150.201      0.03601151
         4153.903      0.03595442
         4157.613      0.03588581
         4161.321      0.03582487
         4165.033      0.03574563
         4168.748       0.0356621
         4172.466      0.03558103
         4176.192      0.03550572
         4179.917      0.03541056
         4183.645      0.03530449
         4187.379      0.03518653
         4191.116      0.03506285
         4194.854      0.03493496
         4198.596      0.03478492
         4202.343      0.03465296
         4206.094      0.03452811
         4209.845      0.03439299
         4213.603      0.03425299
         4217.358      0.03410093
         4221.123      0.03392703
          4224.89      0.03373793
         4228.658      0.03354901
         4232.432      0.03334681
         4236.208      0.03312172
         4239.988      0.03291756
          4243.77      0.03271259
         4247.555      0.03248977
         4251.348      0.03226221
          4255.14      0.03203296
         4258.936      0.03181422
         4262.734      0.03160952
         4266.537      0.03142029
         4270.347      0.03122864
         4274.155      0.03105715
         4277.968      0.03089005
         4281.786      0.03073358
         4285.605      0.03057083
          4289.43       0.0304059
         4293.256      0.03027947
         4297.085      0.03015934
         4300.922      0.03004759
         4304.759      0.02993491
         4308.598       0.0298402
         4312.441      0.02976079
          4316.29      0.02970182
         4320.142      0.02964761
         4323.996      0.02960407
         4327.854      0.02957162
         4331.715      0.02956582
         4335.581      0.02957048
         4339.448      0.02959275
         4343.318       0.0296218
         4347.195      0.02965675
         4351.072      0.02970379
         4354.956      0.02976129
          4358.84      0.02981887
         4362.728      0.02988479
         4366.624      0.02993899
         4370.519      0.02997825
         4374.417      0.02999178
         4378.318      0.02999714
         4382.229      0.02996552
         4386.137      0.02989374
         4390.049      0.02976613
         4393.967      0.02958585
         4397.889       0.0293304
         4401.812      0.02901215
         4405.738      0.02859652
         4409.667      0.02809512
         4413.603      0.02750856
         4417.542      0.02682568
         4421.482      0.02604498
         4425.426      0.02516355
         4429.373      0.02421045
         4433.329      0.02318747
         4437.283       0.0221009
         4441.241      0.02096483
         4445.205      0.01980691
         4449.169      0.01864092
          4453.14       0.0174678
         4457.112      0.01630859
         4461.088      0.01516431
         4465.069      0.01405881
         4469.052      0.01299616
         4473.041      0.01199284
          4477.03      0.01104186
         4481.028      0.01015046
         4485.022     0.009321664
         4489.025     0.008538206
         4493.032     0.007822422
         4497.039     0.007162875
         4501.053     0.006561466
         4505.067     0.006024783
         4509.086     0.005539802
         4513.107     0.005096793
         4517.136      0.00468979
         4521.167     0.004316067
           4525.2     0.003976483
         4529.238     0.003662833
         4533.281     0.003379039
         4537.324      0.00312173
         4541.371     0.002883589
         4545.422     0.002669665
         4549.479     0.002469311
         4553.539     0.002284341
           4557.6     0.002118899
         4561.668     0.002022662
         4565.734     0.001933098
         4569.809       0.0018426
         4573.887     0.001751305
         4577.967     0.001659234
         4582.053     0.001557641
         4586.142     0.001446527
         4590.233     0.001336394
         4594.327     0.001256685
         4598.425     0.001176287
         4602.529     0.001098673
         4606.637     0.001022595
         4610.746     9.499129E-4
          4614.86     8.946954E-4
         4618.979     8.389924E-4
         4623.097     7.849797E-4
         4627.223     7.311329E-4
          4631.35     6.818706E-4
         4635.483     6.425060E-4
         4639.621     6.028088E-4
         4643.759     5.644091E-4
           4647.9     5.258512E-4
         4652.046     4.921815E-4
         4656.198     4.635918E-4
         4660.354     4.348672E-4
         4664.511     4.070317E-4
         4668.673     3.789538E-4
          4672.84     3.557640E-4
         4677.005     3.348145E-4
          4681.18     3.138477E-4
         4685.355     2.931921E-4
         4689.537     2.723536E-4
         4693.722     2.563228E-4
         4697.909     2.407932E-4
         4702.102     2.254785E-4
         4706.293     2.104089E-4
         4710.493     1.956841E-4
         4714.697     1.845047E-4
         4718.902     1.732419E-4
         4723.114     1.622943E-4
          4727.33     1.514059E-4
         4731.543     1.415196E-4
         4735.766     1.334144E-4
          4739.99     1.252484E-4
         4744.221     1.172667E-4
         4748.455     1.092224E-4
          4752.69     1.024781E-4
         4756.932     9.646085E-5
         4761.172     9.046596E-5
         4765.421     8.458072E-5
         4769.674     7.864949E-5
         4773.929     7.410411E-5
         4778.189     6.963909E-5
         4782.454     6.520134E-5
         4786.719     6.077731E-5
         4790.989     5.658345E-5
         4795.262     5.323877E-5
         4799.542     4.986596E-5
         4803.826     4.657495E-5
          4808.11     4.327366E-5
         4812.401     4.043060E-5
         4816.696     3.794934E-5
         4820.993     3.546862E-5
         4825.292     3.303014E-5
         4829.597     3.057269E-5
         4833.907     2.871672E-5
         4838.221     2.691072E-5
         4842.537     2.511469E-5
         4846.855     2.332107E-5
         4851.179     2.164880E-5
         4855.508     2.032518E-5
         4859.842     1.899153E-5
         4864.177     1.771402E-5
         4868.518     1.642865E-5
         4872.863     1.536333E-5
         4877.209     1.440985E-5
          4881.56     1.346337E-5
         4885.914     1.253555E-5
         4890.277     1.161519E-5
         4894.639     1.091898E-5
         4899.004     1.021757E-5
         4903.376     9.556295E-6
         4907.748     8.904377E-6
          4912.13     8.331362E-6
         4916.512     7.844833E-6
         4920.897     7.359693E-6
         4925.289     6.890190E-6
         4929.685     6.417187E-6
         4934.082     6.070037E-6
         4938.482     5.730338E-6
         4942.887     5.400486E-6
         4947.301     5.074327E-6
         4951.714     4.778690E-6
         4956.131     4.532258E-6
         4960.554     4.285167E-6
         4964.976     4.045369E-6
          4969.41     3.803379E-6
         4973.842     3.609767E-6
         4978.278     3.422451E-6
         4982.724     3.233279E-6
         4987.168     3.042813E-6
         4991.617     2.866081E-6
         4996.069     2.714633E-6
         5000.528     2.562069E-6
         5004.991     2.408862E-6
         5009.455     2.254457E-6
         5013.923     2.121701E-6
         5018.398     1.990965E-6
         5022.874     1.854736E-6
         5027.357     1.714780E-6
         5031.841     1.586036E-6
         5036.329     1.473918E-6
         5040.827     1.363142E-6
         5045.323     1.262258E-6
         5049.823     1.160541E-6
         5054.327     1.075943E-6
         5058.838     9.913402E-7
         5063.353     9.090479E-7
         5067.869     8.271912E-7
          5072.39     7.601315E-7
         5076.919     7.063160E-7
         5081.448     6.512932E-7
          5085.98     5.940391E-7
         5090.516     5.393831E-7
          5095.06     5.081376E-7
         5099.607     4.766409E-7
         5104.155     4.369820E-7
         5108.708     3.962526E-7
         5113.265     3.676852E-7
         5117.828     3.438375E-7
         5122.396     3.203689E-7
         5126.965     2.972494E-7
         5131.538     2.769569E-7
          5136.12     2.624503E-7
         5140.701     2.478116E-7
         5145.287     2.328631E-7
         5149.876     2.177975E-7
         5154.472     2.064191E-7
         5159.072     1.950575E-7
         5163.674     1.832751E-7
         5168.283     1.713066E-7
         5172.895     1.599916E-7
         5177.506     1.490445E-7
         5182.127     1.384621E-7
         5186.749     1.283477E-7
         5191.378     1.198158E-7
         5196.012     1.151662E-7
         5200.646     1.101136E-7
         5205.285     1.027307E-7
         5209.928     9.529116E-8
         5214.577     9.452128E-8
         5219.231     9.385045E-8
         5223.887     9.009423E-8
         5228.549     8.569507E-8
         5233.215     8.329688E-8
          5237.88     8.180378E-8
         5242.555     7.957927E-8
         5247.231     7.674137E-8
         5251.914     7.433775E-8
         5256.601     7.258051E-8
          5261.29     7.103655E-8
         5265.985     7.007882E-8
          5270.68     6.878296E-8
         5275.383     6.550979E-8
         5280.092     6.214653E-8
         5284.801     5.547940E-8
         5289.518     4.875940E-8
         5294.239     5.176404E-8
         5298.958     5.589948E-8
         5303.687     5.499142E-8
         5308.418     5.263673E-8
         5313.155     5.199096E-8
         5317.897     5.220933E-8
         5322.641     5.247836E-8
         5327.391     5.278869E-8
          5332.14     5.475578E-8
         5336.899     5.876810E-8
         5341.662     6.157237E-8
         5346.426     6.208238E-8
         5351.198     6.243391E-8
         5355.974     6.230396E-8
         5360.751     6.185354E-8
         5365.532     5.968448E-8
         5370.318     5.762237E-8
         5375.111     5.727939E-8
         5379.908     5.693313E-8
         5384.707     5.794290E-8
         5389.513     5.898572E-8
         5394.323     6.184926E-8
         5399.131     6.493269E-8
          5403.95     6.260402E-8
          5408.77     5.906044E-8
         5413.597     6.062509E-8
         5418.429     6.396171E-8
         5423.262     6.431610E-8
         5428.099     6.322035E-8
          5432.94     6.377040E-8
         5437.792     6.539845E-8
         5442.643     6.518970E-8
         5447.497     6.343196E-8
         5452.359     6.334199E-8
         5457.225     6.504119E-8
         5462.092     6.783762E-8
         5466.964     7.210041E-8
          5471.84     7.574730E-8
         5476.724     7.835534E-8
         5481.612     8.203852E-8
         5486.501     8.790305E-8
         5491.398     9.495309E-8
         5496.293     1.049137E-7
         5501.198     1.137583E-7
         5506.108     1.189600E-7
         5511.019     1.271503E-7
         5515.938     1.467516E-7
          5520.86     1.659708E-7
         5525.785     1.829357E-7
         5530.713     2.016771E-7
         5535.646     2.304751E-7
         5540.587     2.603972E-7
         5545.532     2.974907E-7
         5550.478     3.353331E-7
         5555.432     3.787285E-7
         5560.387     4.239596E-7
         5565.347     4.885811E-7
         5570.313     5.534006E-7
         5575.282     6.154360E-7
         5580.258     6.789058E-7
         5585.238     7.620672E-7
          5590.22     8.452454E-7
         5595.206     9.203564E-7
         5600.197     9.964980E-7
         5605.198     1.088040E-6
         5610.197     1.178474E-6
         5615.201     1.236992E-6
         5620.213     1.296062E-6
         5625.226     1.362283E-6
         5630.246     1.426561E-6
         5635.268     1.447985E-6
         5640.294     1.467973E-6
         5645.328     1.463791E-6
         5650.367     1.457859E-6
         5655.406     1.429825E-6
         5660.451     1.398067E-6
         5665.502     1.329190E-6
         5670.559     1.258520E-6
         5675.617     1.175241E-6
         5680.679     1.091524E-6
         5685.752     1.006523E-6
         5690.823     9.165017E-7
         5695.899     8.012228E-7
         5700.979     6.928475E-7
         5706.064     6.146756E-7
          5711.16     5.386304E-7
         5716.254     4.708786E-7
         5721.353     4.051042E-7
         5726.456     3.452351E-7
         5731.567     2.930340E-7
         5736.682     2.585894E-7
         5741.799     2.251375E-7
          5746.92     1.935850E-7
         5752.053     1.667420E-7
         5757.183     1.471318E-7
         5762.318     1.302955E-7
         5767.458     1.168604E-7
         5772.602     1.058476E-7
         5777.757     9.720452E-8
         5782.911     9.048230E-8
         5788.068     8.523457E-8
         5793.237     7.922866E-8
         5798.401     7.277564E-8
         5803.577     6.899744E-8
         5808.753     6.641969E-8
         5813.937     6.715728E-8
         5819.126     6.895288E-8
         5824.316     6.718884E-8
         5829.511     6.469546E-8
         5834.711     6.234523E-8
         5839.918     6.000131E-8
          5845.13     5.965251E-8
         5850.344     5.956356E-8
         5855.562     6.272705E-8
         5860.792     6.501530E-8
         5866.016     6.231842E-8
         5871.251     6.091155E-8
         5876.488     6.365575E-8
         5881.732     6.514560E-8
         5886.982     6.407030E-8
         5892.232     6.312278E-8
         5897.491     6.234856E-8
         5902.749     6.245858E-8
         5908.017     6.338029E-8
          5913.29     6.386124E-8
         5918.563     6.407539E-8
         5923.846     6.184183E-8
         5929.133     5.868415E-8
         5934.421     6.217443E-8
         5939.714     6.698409E-8
         5945.012     6.413711E-8
         5950.318     6.121591E-8
         5955.629     6.418541E-8
         5960.941     6.629247E-8
         5966.258     6.435543E-8
         5971.579     6.326884E-8
         5976.909     6.421426E-8
         5982.243     6.535277E-8
         5987.579     6.675652E-8
         5992.923     6.587858E-8
         5998.271     6.309898E-8
         6003.622     6.493132E-8
         6008.976     6.897149E-8
         6014.336     6.839191E-8
         6019.704     6.671748E-8
         6025.076     6.465410E-8
          6030.45     6.275772E-8
         6035.832     6.294728E-8
         6041.219     6.363582E-8
         6046.604     6.602892E-8
         6052.001     6.668174E-8
         6057.399     6.437111E-8
         6062.805     6.560320E-8
         6068.216     7.012852E-8
         6073.628     6.963091E-8
         6079.046     6.665885E-8
         6084.468     6.576239E-8
         6089.898     6.530891E-8
         6095.333     6.563015E-8
          6100.77     6.537717E-8
         6106.215     6.154746E-8
         6111.665     6.053236E-8
         6117.112     6.592634E-8
         6122.572     6.662521E-8
         6128.033     6.203582E-8
         6133.502     6.193630E-8
         6138.976     6.436608E-8
         6144.452     6.755057E-8
         6149.936     7.091435E-8
         6155.417     7.030152E-8
         6160.911     6.931818E-8
          6166.41     6.671465E-8
          6171.91     6.542450E-8
         6177.418     6.660760E-8
         6182.932     6.568268E-8
         6188.443     6.290086E-8
         6193.966     6.419818E-8
         6199.491     6.710062E-8
         6205.024     6.599999E-8
         6210.562     6.449717E-8
         6216.101     6.304375E-8
         6221.649     6.254965E-8
         6227.195     6.432932E-8
         6232.756     6.399487E-8
         6238.315     6.150366E-8
         6243.879     6.082762E-8
         6249.452     6.094138E-8
         6255.029     6.478918E-8
         6260.608     6.823628E-8
         6266.193     6.506486E-8
         6271.782     6.386291E-8
         6277.379     6.688053E-8
         6282.982     6.968533E-8
         6288.586     7.230144E-8
         6294.198     7.015564E-8
         6299.809     6.640501E-8
         6305.435     6.281995E-8
         6311.059     6.048163E-8
         6316.688     6.349018E-8
         6322.326     6.512486E-8
         6327.968     6.479560E-8
         6333.612     6.544657E-8
         6339.262     6.665017E-8
         6344.916     6.804240E-8
         6350.579     6.925241E-8
         6356.247     6.859436E-8
         6361.916     6.867892E-8
         6367.594     7.022152E-8
         6373.277     7.131589E-8
         6378.961     7.208033E-8
         6384.651     7.160335E-8
         6390.346     7.084822E-8
         6396.049     7.009073E-8
         6401.757     6.867356E-8
         6407.467     6.577416E-8
         6413.183     6.533726E-8
         6418.906     6.686427E-8
         6424.631     6.831542E-8
         6430.365     6.944137E-8
         6436.104     6.601815E-8
         6441.845     6.473306E-8
         6447.594     6.796875E-8
         6453.345     6.915238E-8
         6459.101     6.885961E-8
         6464.866     6.664136E-8
         6470.632     6.393683E-8
         6476.407     6.016690E-8
         6482.184     5.952607E-8
         6487.969     6.403997E-8
         6493.756     6.430144E-8
         6499.548     6.226131E-8
         6505.349     6.151799E-8
         6511.154     6.117373E-8
         6516.962     6.198977E-8
         6522.778     6.163575E-8
         6528.596     6.000649E-8
         6534.419     6.018017E-8
         6540.251     6.099155E-8
         6546.088     6.328018E-8
         6551.927     6.378615E-8
         6557.771     6.068937E-8
         6563.624     6.064682E-8
         6569.478     6.247720E-8
         6575.341     6.353101E-8
         6581.206     6.421579E-8
          6587.08     6.377901E-8
         6592.955     6.210772E-8
         6598.839     5.921849E-8
         6604.729     5.899535E-8
         6610.616     5.963513E-8
         6616.516     6.208132E-8
         6622.421     6.354589E-8
         6628.328     6.360418E-8
         6634.244     6.278730E-8
         6640.165     6.169483E-8
         6646.087     6.294331E-8
         6652.015     6.363577E-8
         6657.948     6.325406E-8
         6663.891     6.260000E-8
         6669.838     6.180368E-8
         6675.787     6.374161E-8
         6681.745     6.390366E-8
         6687.701     5.961323E-8
          6693.67     5.822849E-8
         6699.644     5.866175E-8
          6705.62     5.762630E-8
         6711.604     5.677336E-8
         6717.594     5.666861E-8
         6723.586     5.891618E-8
         6729.583     6.273372E-8
         6735.585     6.212813E-8
         6741.597     6.250553E-8
         6747.613     6.650324E-8
         6753.632     6.880251E-8
          6759.66     6.998975E-8
         6765.692     7.482603E-8
         6771.723     7.911011E-8
         6777.767     8.151228E-8
         6783.813     8.903491E-8
         6789.867     9.954177E-8
         6795.927     1.051457E-7
         6801.988     1.123418E-7
         6808.055     1.230412E-7
         6814.127     1.344949E-7
         6820.209     1.465572E-7
         6826.296     1.660485E-7
         6832.385     1.870287E-7
         6838.482     2.103772E-7
         6844.586     2.320105E-7
         6850.687     2.540177E-7
         6856.801     2.839591E-7
         6862.917     3.136322E-7
         6869.042     3.430594E-7
         6875.173     3.825471E-7
         6881.305     4.219609E-7
         6887.446     4.546244E-7
         6893.586     4.994393E-7
         6899.738     5.529216E-7
         6905.896     5.982347E-7
         6912.056     6.424922E-7
         6918.225     6.855776E-7
         6924.399     7.277883E-7
         6930.572     7.699054E-7
         6936.757     8.157897E-7
         6942.944     8.553558E-7
         6949.141     8.880448E-7
         6955.343     9.181623E-7
         6961.546     9.460866E-7
          6967.76     9.688868E-7
         6973.971     9.903173E-7
         6980.195     1.010814E-6
         6986.424     1.025879E-6
         6992.656     1.033309E-6
         6998.897     1.030523E-6
         7005.143     1.024869E-6
         7011.392     1.019298E-6
         7017.645     1.016106E-6
         7023.904     1.002975E-6
         7030.173     9.838934E-7
         7036.448     9.646905E-7
         7042.724     9.412919E-7
         7049.009     9.123940E-7
         7055.292     8.843367E-7
         7061.589     8.579044E-7
         7067.892     8.357501E-7
         7074.196     8.071565E-7
          7080.51     7.753719E-7
         7086.829     7.435310E-7
          7093.15     7.117951E-7
         7099.477     6.801413E-7
         7105.809     6.501069E-7
         7112.151     6.195331E-7
         7118.498     5.875551E-7
         7124.848     5.558662E-7
         7131.207     5.259294E-7
         7137.571     5.028680E-7
         7143.933     4.759923E-7
         7150.309     4.469652E-7
         7156.687     4.218141E-7
         7163.074     3.990717E-7
         7169.467     3.789206E-7
         7175.862     3.603178E-7
         7182.262     3.397313E-7
         7188.668     3.152192E-7
         7195.084     2.959203E-7
         7201.506     2.789493E-7
         7207.929     2.650045E-7
         7214.362     2.524146E-7
         7220.801     2.404920E-7
         7227.237     2.285837E-7
         7233.688     2.160909E-7
         7240.144     2.032356E-7
         7246.601     1.924466E-7
         7253.069     1.829085E-7
         7259.538     1.747545E-7
         7266.017     1.670387E-7
         7272.498     1.577041E-7
         7278.989     1.457168E-7
         7285.481     1.440877E-7
         7291.979     1.408955E-7
         7298.487     1.298178E-7
         7305.001     1.231759E-7
         7311.517     1.170171E-7
         7318.038     1.080121E-7
         7324.569     1.024748E-7
         7331.103     9.861630E-8
         7337.646     9.566148E-8
          7344.19     9.395642E-8
         7350.745     9.285755E-8
         7357.301     9.104419E-8
         7363.867     8.783164E-8
         7370.436     8.363526E-8
         7377.014     7.914419E-8
         7383.593     7.620701E-8
         7390.183     7.454062E-8
         7396.775     7.254067E-8
         7403.372     7.193589E-8
         7409.979     7.265588E-8
         7416.589     6.837522E-8
         7423.208     6.521491E-8
         7429.829     6.325614E-8
          7436.46     6.197163E-8
         7443.097     6.220610E-8
         7449.736     6.414240E-8
         7456.381     6.030785E-8
         7463.036     5.735053E-8
         7469.692     5.571532E-8
         7476.359     4.991443E-8
         7483.027     4.832735E-8
         7489.702     5.200551E-8
         7496.386     5.112579E-8
         7503.077     4.913220E-8
         7509.769     4.608826E-8
         7516.471     4.813591E-8
         7523.175     4.843539E-8
          7529.89     4.660635E-8
         7536.606     4.672005E-8
         7543.328     4.669206E-8
         7550.061     4.644320E-8
         7556.794     4.130154E-8
         7563.539     4.082564E-8
          7570.29     4.426204E-8
         7577.042     4.133250E-8
           7583.8     4.191061E-8
         7590.568     4.465933E-8
         7597.339     4.150721E-8
         7604.119     3.851485E-8
         7610.906     3.643812E-8
         7617.694     3.959534E-8
         7624.489     3.973136E-8
          7631.29     3.815129E-8
           7638.1     3.582919E-8
         7644.917     3.701621E-8
         7651.736     3.851720E-8
         7658.565     3.701257E-8
         7665.396     3.828988E-8
         7672.233     3.925011E-8
         7679.081     3.805375E-8
          7685.93     3.745600E-8
          7692.79     3.676896E-8
         7699.655     3.581853E-8
         7706.523     3.668281E-8
         7713.401     3.686945E-8
         7720.276     3.635859E-8
         7727.167     3.792104E-8
         7734.063     3.959033E-8
         7740.961     4.057069E-8
          7747.87     3.686918E-8
         7754.785     3.524805E-8
         7761.697     3.484038E-8
         7768.625     3.532151E-8
         7775.554     3.573571E-8
         7782.494     3.645847E-8
         7789.439     3.775788E-8
         7796.387     3.314316E-8
         7803.345     3.050657E-8
         7810.301     3.061893E-8
         7817.271     3.230636E-8
         7824.249     3.288459E-8
         7831.227     3.291633E-8
         7838.216     3.370195E-8
         7845.212     3.455313E-8
         7852.209     3.452260E-8
         7859.213     3.254701E-8
         7866.223     3.164252E-8
         7873.244     3.150000E-8
         7880.271     3.213798E-8
         7887.299     3.415746E-8
         7894.338     3.426980E-8
         7901.375     3.306566E-8
         7908.427     3.129340E-8
         7915.485     3.552833E-8
         7922.545     3.802501E-8
         7929.616     3.444778E-8
         7936.693     3.394564E-8
         7943.772     3.413872E-8
         7950.858     3.466753E-8
          7957.95     3.435791E-8
         7965.052     3.480431E-8
         7972.161     3.526394E-8
         7979.271     3.506015E-8
         7986.393     3.676738E-8
         7993.521     4.440765E-8
         8000.646     5.454351E-8
         8007.786     3.169145E-8
         8014.929     3.109111E-8
         8022.082     3.486962E-8
         8029.242     2.530922E-8
         8036.403     2.419064E-8
         8043.576     2.406581E-8
         8050.746     2.394129E-8
         8057.931     2.381682E-8
         8065.123     2.369253E-8
         8072.316     2.732471E-8
         8079.521     3.880482E-8
         8086.731     2.856641E-8
          8093.94     2.319739E-8
         8101.164     2.357412E-8
         8108.389     2.653738E-8
         8115.626     2.705981E-8
         8122.869     2.569535E-8
         8130.114     2.260670E-8
          8137.37     2.401483E-8
         8144.628     2.346486E-8
         8151.893     2.221582E-8
         8159.168     2.209391E-8
         8166.446     2.231718E-8
         8173.734     2.395447E-8
         8181.029     2.595844E-8
         8188.326     2.239307E-8
          8195.63     2.148751E-8
         8202.939     2.257451E-8
         8210.261     2.523871E-8
         8217.588     2.250117E-8
         8224.918     3.893109E-8
         8232.259     4.852811E-8
         8239.602     2.218067E-8
          8246.95     2.064658E-8
         8254.311     2.052718E-8
         8261.673     2.040804E-8
         8269.047     2.028902E-8
         8276.427     2.017021E-8
         8283.809     2.005168E-8
         8291.197     2.021562E-8
         8298.597     2.182994E-8
         8305.999     2.062931E-8
         8313.412     1.957936E-8
         8320.827     2.359469E-8
         8328.253     6.033180E-8
         8335.687     4.051983E-8
         8343.121     1.925171E-8
         8350.563     1.942422E-8
         8358.011     1.904357E-8
         8365.471     1.962871E-8
         8372.937     1.979052E-8
         8380.409     1.881762E-8
         8387.879     1.877149E-8
         8395.365     1.872497E-8
         8402.854     1.867811E-8
         8410.353     1.877296E-8
         8417.859     2.174271E-8
         8425.367     2.474101E-8
         8432.887     2.423472E-8
         8440.408     1.860087E-8
         8447.937     2.153750E-8
         8455.477     2.012957E-8
         8463.019     1.829055E-8
         8470.571     1.824050E-8
         8478.127     1.819011E-8
         8485.693     1.932166E-8
         8493.262     1.948360E-8
         8500.842     1.803623E-8
         8508.425     1.798011E-8
         8516.019     1.792357E-8
         8523.614     1.786668E-8
         8531.221     1.780936E-8
          8538.83     1.775168E-8
         8546.446     1.769361E-8
         8554.074     1.841903E-8
         8561.704     1.923535E-8
         8569.345     1.801491E-8
         8576.993     1.897440E-8
         8584.644     1.846401E-8
         8592.301     1.733670E-8
         8599.969     1.727579E-8
          8607.64     2.003859E-8
         8615.321     2.105842E-8
         8623.006     1.994865E-8
         8630.702     1.733745E-8
         8638.405     2.065413E-8
         8646.105     1.860477E-8
         8653.821     2.772079E-8
          8661.54     4.077094E-8
         8669.271     1.876463E-8
         8677.008     1.663597E-8
         8684.747     1.656823E-8
         8692.493     1.650008E-8
         8700.251     1.655551E-8
         8708.012     2.030523E-8
         8715.783     2.000442E-8
         8723.563     1.804650E-8
         8731.343     1.615313E-8
         8739.136     1.608250E-8
         8746.926     1.601154E-8
         8754.732     1.611186E-8
         8762.546     1.613756E-8
         8770.361     1.579599E-8
         8778.188     1.572329E-8
         8786.019     1.565021E-8
         8793.859     1.557668E-8
         8801.703     1.550276E-8
         8809.554     1.542842E-8
         8817.416     1.535361E-8
         8825.286     1.630260E-8
         8833.157     1.652204E-8
         8841.041     1.560177E-8
         8848.922     1.910145E-8
         8856.819     3.638287E-8
         8864.724     3.108407E-8
         8872.631     1.608205E-8
          8880.55     1.473984E-8
         8888.476     1.466114E-8
         8896.403     1.708618E-8
         8904.338     1.670471E-8
          8912.28     1.442253E-8
         8920.234     1.434206E-8
         8928.195     1.426114E-8
         8936.159     1.444497E-8
         8944.135     1.434904E-8
         8952.117     1.408558E-8
         8960.097     1.425783E-8
         8968.094     1.390807E-8
         8976.093     1.375996E-8
         8984.104     1.367397E-8
         8992.122     1.392037E-8
         9000.143     1.510703E-8
         9008.175     1.768940E-8
         9016.205     3.952984E-8
         9024.252     4.437807E-8
         9032.306     2.889061E-8
         9040.362     1.340933E-8
         9048.431     1.428668E-8
         9056.506     1.342258E-8
         9064.579     1.282288E-8
         9072.669     1.423369E-8
         9080.761     1.779769E-8
         9088.865     1.318953E-8
         9096.978     1.445537E-8
         9105.092     2.315898E-8
         9113.218     2.692577E-8
         9121.341     1.815365E-8
         9129.481     1.272303E-8
          9137.63     1.209026E-8
          9145.78     1.193657E-8
         9153.942     1.245101E-8
         9162.112     1.295608E-8
         9170.284     1.166202E-8
         9178.464     1.156964E-8
         9186.655     1.147676E-8
         9194.849     1.298589E-8
         9203.056     1.356578E-8
         9211.264     1.119548E-8
         9219.485     1.110077E-8
         9227.708     1.100566E-8
         9235.938     1.091009E-8
         9244.182     1.081399E-8
         9252.427     1.071708E-8
         9260.685     1.061868E-8
         9268.949     1.051985E-8
         9277.217     1.202840E-8
         9285.492     1.131561E-8
         9293.779     1.265913E-8
         9302.068     1.542690E-8
          9310.37     1.123541E-8
         9318.675     1.265846E-8
         9326.991     1.070493E-8
         9335.315     1.196991E-8
         9343.637     1.560058E-8
         9351.977     1.847036E-8
         9360.317     1.793857E-8
         9368.672     1.541536E-8
         9377.033     1.980930E-8
         9385.396     1.486706E-8
         9393.768     8.983871E-9
         9402.152     8.921265E-9
         9410.538     8.960232E-9
         9418.937     8.685201E-9
         9427.338     1.040350E-8
         9435.752     9.504402E-9
         9444.173     8.340341E-9
         9452.592     8.231537E-9
         9461.028     8.122131E-9
         9469.472     8.012258E-9
         9477.918     7.901961E-9
         9486.377     7.791118E-9
         9494.838     7.679865E-9
         9503.313     7.575983E-9
         9511.788     7.484473E-9
         9520.272     7.393069E-9
          9528.77     7.301732E-9
         9537.269     1.834242E-8
          9545.78     1.359670E-8
           9554.3     1.210660E-8
         9562.821     1.523165E-8
         9571.351     7.441121E-9
         9579.894     9.306856E-9
         9588.438     7.062793E-9
         9596.995     6.575799E-9
         9605.561     6.485612E-9
         9614.128     6.395617E-9
         9622.704     6.305744E-9
         9631.286     6.216027E-9
         9639.882     6.126387E-9
         9648.485     6.623336E-9
         9657.092     6.145595E-9
         9665.711     1.483939E-8
         9674.332     1.454736E-8
         9682.961     5.680461E-9
         9691.603     5.591681E-9
         9700.252     5.503050E-9
         9708.904     5.414616E-9
         9717.569     5.326284E-9
         9726.237     5.238153E-9
         9734.912     5.150186E-9
         9743.601     5.062312E-9
         9752.291     4.974058E-9
         9760.995     4.884281E-9
         9769.701     4.794791E-9
         9778.421     9.873417E-9
         9787.147     8.446952E-9
         9795.872     5.724564E-9
         9804.614     7.089737E-9
         9813.359     8.089570E-9
         9822.118     4.262541E-9
         9830.884     4.174640E-9
         9839.652     4.087029E-9
         9848.435     3.999605E-9
         9857.219     3.912484E-9
         9866.011     3.825610E-9
         9874.816     4.305600E-9
         9883.624     4.385388E-9
         9892.444     4.064570E-9
         9901.273     5.216179E-9
         9910.104     3.437956E-9
         9918.944     6.905299E-9
         9927.791     4.089647E-9
         9936.651     3.139549E-9
         9945.521     3.054929E-9
         9954.391     2.970642E-9
         9963.275     2.886561E-9
         9972.162     2.856278E-9
         9981.057     3.098664E-9
         9989.964     4.142909E-9
          9998.88     4.858715E-9
          10007.8     4.160864E-9
         10016.72     2.918973E-9
         10025.67     2.398972E-9
          10034.6     2.349696E-9
         10043.56     2.300637E-9
         10052.52     2.251970E-9
         10061.49     2.203646E-9
         10070.47     2.180860E-9
         10079.46     2.602123E-9
         10088.45     2.140077E-9
         10097.44     2.045440E-9
         10106.46     2.009082E-9
         10115.48     1.939410E-9
          10124.5     1.874793E-9
         10133.53     1.829202E-9
         10142.58     2.288724E-9
         10151.62     3.338418E-9
         10160.68     1.745395E-9
         10169.74     2.362051E-9
         10178.81     1.690904E-9
          10187.9     1.705078E-9
         10196.99     1.694384E-9
         10206.08     1.834967E-9
         10215.19     1.658581E-9
         10224.31     1.392446E-9
         10233.43     2.221441E-9
         10242.56     3.140961E-9
         10251.69     1.268399E-9
         10260.85     1.227721E-9
           10270.     1.187459E-9
         10279.16     1.171495E-9
         10288.33     1.133250E-9
         10297.51     1.243135E-9
          10306.7     1.101244E-9
         10315.89     1.008568E-9
          10325.1    9.671016E-10
          10334.3    9.158013E-10
         10343.53     1.029236E-9
         10352.76     1.137431E-9
         10361.99    8.048974E-10
         10371.25    7.686524E-10
          10380.5    7.370020E-10
         10389.76    7.752702E-10
         10399.02    6.697081E-10
          10408.3    7.969422E-10
         10417.59    6.396669E-10
         10426.89    6.775961E-10
         10436.19    5.873487E-10
         10445.49    4.926170E-10
         10454.82    5.076933E-10
         10464.15    6.520900E-10
         10473.48    6.435292E-10
         10482.82    3.637873E-10
         10492.17    3.325637E-10
         10501.54    3.056467E-10
         10510.91    2.990105E-10
         10520.29    2.924325E-10
         10529.67    2.859147E-10
         10539.07    2.794481E-10
         10548.47    2.730489E-10
         10557.88    4.730193E-10
         10567.31    3.292276E-10
         10576.73    2.542035E-10
         10586.17    4.938892E-10
         10595.61    4.126088E-10
         10605.06    2.359097E-10
         10614.53    2.299252E-10
           10624.    2.240104E-10
         10633.48    2.181560E-10
         10642.96    2.196591E-10
         10652.45    2.288212E-10
         10661.97    2.139768E-10
         10671.48    1.953495E-10
         10680.99    1.898046E-10
         10690.53    1.843159E-10
         10700.07    1.788962E-10
         10709.61    1.735393E-10
         10719.16    1.896511E-10
         10728.72    1.659012E-10
         10738.31    1.964407E-10
         10747.88    7.379755E-10
         10757.47    4.052304E-10
         10767.08    1.725292E-10
         10776.67    1.378092E-10
         10786.29    1.807701E-10
         10795.91    1.581087E-10
         10805.54    1.313320E-10
         10815.18    1.253922E-10
         10824.83    2.322018E-10
         10834.49    2.495745E-10
         10844.17    1.184723E-10
         10853.84    1.008303E-10
         10863.52    9.650430E-11
         10873.21    9.224480E-11
         10882.91    1.228287E-10
         10892.63    1.723844E-10
         10902.35    1.066881E-10
         10912.07    1.249395E-10
         10921.81    8.463595E-11
         10931.54    6.808171E-11
         10941.31    6.428560E-11
         10951.07    6.056216E-11
         10960.83    5.690657E-11
         10970.62    5.331479E-11
         10980.39    4.979979E-11
          10990.2    4.654417E-11
           11000.    5.218989E-11
