#  Table wf3f450wsys.tab  Mon 12:22:16 02-Jun-97

#      WAVELENGTH      THROUGHPUT
#       angstroms                

            1860.     4.190974E-8
         1861.655     3.745735E-8
         1863.309     3.296362E-8
         1864.968     2.841564E-8
         1866.627     2.382347E-8
         1868.287     1.918761E-8
         1869.948     1.450479E-8
         1871.612     2.953530E-8
         1873.277     4.535467E-8
         1874.943     6.132188E-8
         1876.611     7.745884E-8
          1878.28     9.374634E-8
         1879.951     1.101614E-7
         1881.624     1.387171E-7
         1883.297     1.678655E-7
         1884.973     1.972832E-7
         1886.648     2.269153E-7
         1888.326     2.568382E-7
         1890.007     2.869418E-7
         1891.687     2.969853E-7
          1893.37     3.071213E-7
         1895.055     3.173377E-7
          1896.74     3.276290E-7
         1898.427     3.380078E-7
         1900.116     3.455890E-7
         1901.806     3.141816E-7
         1903.497     2.824883E-7
         1905.191     2.504873E-7
         1906.885     2.182166E-7
         1908.581     1.856359E-7
          1910.28     1.545364E-7
         1911.978     1.322059E-7
         1913.679     1.096595E-7
         1915.381     8.692393E-8
         1917.085     6.397082E-8
         1918.791     4.081399E-8
         1920.498     2.391180E-8
         1922.205     2.261840E-8
         1923.915     2.131116E-8
         1925.628     1.999091E-8
         1927.339     1.866093E-8
         1929.054     1.731701E-8
         1930.769     2.362325E-8
         1932.487     3.946533E-8
         1934.207     5.544785E-8
         1935.926     7.155983E-8
         1937.649     8.782234E-8
         1939.372     1.042174E-7
         1941.096     1.468508E-7
         1942.824     2.049570E-7
         1944.552     2.635009E-7
         1946.281     3.225536E-7
         1948.013     3.821589E-7
         1949.746     4.422813E-7
          1951.48     4.410784E-7
         1953.216     4.291814E-7
         1954.954     4.171662E-7
         1956.691     4.050484E-7
         1958.432     3.927963E-7
         1960.176     3.811979E-7
         1961.917     3.765018E-7
         1963.663     3.717473E-7
          1965.41     3.669401E-7
         1967.158     3.620836E-7
         1968.907     3.571735E-7
          1970.66     3.510107E-7
         1972.412     3.428056E-7
         1974.167     3.345129E-7
         1975.922     3.261486E-7
          1977.68     3.176908E-7
          1979.44     3.091443E-7
           1981.2     3.072365E-7
         1982.962     3.084474E-7
         1984.726     3.096612E-7
         1986.491     3.108762E-7
         1988.259     3.120939E-7
         1990.028     3.134191E-7
         1991.797     3.213949E-7
         1993.568     3.294312E-7
         1995.342     3.375341E-7
         1997.117     3.456984E-7
         1998.893     3.539184E-7
         2000.672     3.492428E-7
         2002.451     3.230473E-7
         2004.232     2.965590E-7
         2006.016     2.697959E-7
         2007.799     2.427716E-7
         2009.586     2.154494E-7
         2011.373     1.974679E-7
         2013.161     1.822129E-7
         2014.953     1.667790E-7
         2016.745     1.512053E-7
         2018.538     1.354702E-7
         2020.334     1.236653E-7
         2022.132     1.297596E-7
          2023.93     1.359065E-7
         2025.731     1.421138E-7
         2027.532     1.483741E-7
         2029.335     1.546917E-7
         2031.141     1.550829E-7
         2032.949     1.519609E-7
         2034.756     1.488076E-7
         2036.566     1.456186E-7
         2038.378     1.423920E-7
          2040.19     1.374969E-7
         2042.006     1.185310E-7
         2043.821     9.939067E-8
          2045.64     8.004906E-8
          2047.46     6.051810E-8
         2049.279     4.082073E-8
         2051.104     3.062437E-8
         2052.929     2.671762E-8
         2054.753     2.277732E-8
         2056.581     1.879432E-8
         2058.411     1.477263E-8
         2060.241     1.234573E-8
         2062.074     2.068769E-8
         2063.909     2.910769E-8
         2065.744     3.760047E-8
         2067.581     4.617200E-8
         2069.422     5.483304E-8
         2071.262     7.813335E-8
         2073.104     1.083521E-7
         2074.948     1.388632E-7
         2076.793     1.696316E-7
         2078.642     2.007158E-7
         2080.491     2.268335E-7
         2082.341     2.386953E-7
         2084.193     2.506659E-7
         2086.047     2.627301E-7
         2087.902     2.748963E-7
          2089.76     2.871793E-7
         2091.619     2.760760E-7
         2093.479     2.613785E-7
         2095.341     2.465380E-7
         2097.204     2.315694E-7
          2099.07     2.164562E-7
         2100.938     2.023526E-7
         2102.806     1.892704E-7
         2104.677     1.760637E-7
         2106.548     1.627509E-7
         2108.423     1.493123E-7
         2110.299     1.380012E-7
         2112.175     1.385073E-7
         2114.053     1.390146E-7
         2115.934     1.395236E-7
         2117.817     1.400338E-7
           2119.7     1.405450E-7
         2121.586     1.471421E-7
         2123.474     1.549451E-7
         2125.361     1.627969E-7
         2127.252     1.707180E-7
         2129.144     1.786976E-7
         2131.038     1.813035E-7
         2132.934     1.794289E-7
          2134.83     1.775379E-7
          2136.73     1.756284E-7
         2138.631     1.737178E-7
         2140.534     1.725220E-7
         2142.437     1.731166E-7
         2144.342     1.737129E-7
         2146.249     1.743108E-7
          2148.16     1.749112E-7
         2150.071     1.751292E-7
         2151.981     1.653466E-7
         2153.896     1.554764E-7
         2155.813     1.455306E-7
         2157.729     1.355167E-7
         2159.649     1.254189E-7
         2161.571     1.195516E-7
         2163.493     1.146085E-7
         2165.417     1.096294E-7
         2167.344     1.046082E-7
         2169.272     9.955620E-8
         2171.201     9.445442E-8
         2173.133     8.930647E-8
         2175.065     8.412784E-8
            2177.     7.891047E-8
         2178.936     7.366153E-8
         2180.875     6.836710E-8
         2182.815     6.303060E-8
         2184.755     5.766796E-8
           2186.7     5.226214E-8
         2188.645     4.682651E-8
         2190.592     4.390406E-8
         2192.539     4.680791E-8
          2194.49     4.972930E-8
         2196.441     5.266501E-8
         2198.396     5.561840E-8
         2200.352     5.864623E-8
         2202.309     6.197581E-8
         2204.267     6.535087E-8
         2206.229     6.878098E-8
         2208.191     7.225619E-8
         2210.156     7.531289E-8
         2212.121     7.289011E-8
         2214.088     7.042105E-8
         2216.059     6.790262E-8
         2218.029     6.534081E-8
         2220.002     6.272926E-8
         2221.977     5.694350E-8
         2223.953     5.106648E-8
         2225.931     4.509113E-8
         2227.912     3.902059E-8
         2229.894     3.285436E-8
         2231.876     2.966548E-8
         2233.862     2.659777E-8
         2235.849     2.348269E-8
         2237.837     2.032197E-8
         2239.828     1.711108E-8
          2241.82     2.617992E-8
         2243.814     3.655431E-8
         2245.811     4.707405E-8
         2247.809     5.773729E-8
         2249.808     6.854067E-8
         2251.808     7.631549E-8
         2253.812     8.385688E-8
         2255.817     9.149400E-8
         2257.823     9.922441E-8
         2259.831     1.070532E-7
         2261.841     1.016735E-7
         2263.854     9.498400E-8
         2265.865     8.820903E-8
         2267.883     8.132663E-8
         2269.901     7.435371E-8
         2271.918     6.728624E-8
         2273.939     6.011525E-8
         2275.962     5.285010E-8
         2277.988     4.548951E-8
         2280.013     3.806355E-8
         2282.042     3.439532E-8
         2284.071     3.068237E-8
         2286.103     2.691955E-8
         2288.136     2.311119E-8
         2290.172     1.958951E-8
         2292.209     1.969763E-8
         2294.248     1.980591E-8
         2296.288     1.991535E-8
         2298.331     2.003074E-8
         2300.376     2.014622E-8
         2302.421     2.026095E-8
          2304.47     2.037605E-8
         2306.519     2.049138E-8
          2308.57     2.060701E-8
         2310.625     2.072262E-8
         2312.681     2.083740E-8
         2314.736     2.095234E-8
         2316.796     2.106770E-8
         2318.857     2.118335E-8
         2320.919     2.325578E-8
         2322.983     2.780010E-8
         2325.049     3.239857E-8
         2327.118     3.704985E-8
         2329.187     4.174975E-8
          2331.26     4.650366E-8
         2333.334     5.130814E-8
         2335.409     5.616172E-8
         2337.485     6.106804E-8
         2339.565     6.603025E-8
         2341.648     7.104421E-8
         2343.729     7.610114E-8
         2345.814     8.121643E-8
         2347.901     8.638503E-8
         2349.989     9.160409E-8
          2352.08     1.016601E-7
         2354.171     1.118390E-7
         2356.266     1.221306E-7
         2358.361     1.325213E-7
         2360.458     1.408629E-7
          2362.56     1.415410E-7
         2364.661     1.422197E-7
         2366.764     1.429003E-7
         2368.869     1.435820E-7
         2370.977     1.442599E-7
         2373.085     1.449322E-7
         2375.196     1.456063E-7
          2377.31     1.462818E-7
         2379.422     1.469580E-7
         2381.539     1.514150E-7
          2383.66     1.573408E-7
         2385.778     1.633086E-7
         2387.901     1.693376E-7
         2390.024     1.753563E-7
          2392.15     1.761253E-7
         2394.279     1.768958E-7
         2396.409     1.776679E-7
          2398.54     1.784411E-7
         2400.673     1.757667E-7
         2402.809     1.655286E-7
         2404.947     1.551891E-7
         2407.086     1.447489E-7
         2409.225     1.342184E-7
         2411.369     1.271459E-7
         2413.514     1.220363E-7
         2415.662     1.168763E-7
          2417.81     1.116694E-7
         2419.961     1.064089E-7
         2422.113     8.981761E-8
         2424.267     7.286637E-8
         2426.425     5.574283E-8
         2428.584     3.847533E-8
         2430.742     2.509755E-8
         2432.905     1.930978E-8
         2435.069     1.347053E-8
         2437.235     7.584238E-9
         2439.403     1.643432E-9
         2441.572              0.
         2443.745              0.
         2445.917              0.
         2448.094              0.
         2450.272              0.
         2452.451              0.
         2454.631              0.
         2456.815              0.
            2459.              0.
         2461.188     3.394655E-9
         2463.378     9.688873E-9
         2465.569     1.603378E-8
          2467.76     2.242311E-8
         2469.958     2.887563E-8
         2472.154     3.537121E-8
         2474.353     4.192217E-8
         2476.553     4.852143E-8
         2478.756     5.517282E-8
         2480.961     6.471659E-8
         2483.167     7.801729E-8
         2485.378     9.144041E-8
         2487.588     1.049507E-7
         2489.801     1.185739E-7
         2492.015     1.201872E-7
         2494.231     1.206098E-7
         2496.451     1.210338E-7
          2498.67     1.214577E-7
         2500.893     1.218829E-7
         2503.118     1.223090E-7
         2505.345     1.227358E-7
         2507.573     1.231632E-7
         2509.803     1.235913E-7
         2512.036     1.303350E-7
          2514.27     1.377387E-7
         2516.507     1.452026E-7
         2518.746     1.527220E-7
         2520.985     1.602938E-7
         2523.228     1.679265E-7
         2525.472     1.756113E-7
         2527.719     1.833576E-7
         2529.967     1.911556E-7
         2532.218     1.848336E-7
         2534.471     1.782442E-7
         2536.723     1.716075E-7
          2538.98     1.646402E-7
          2541.24     1.576006E-7
           2543.5     1.505406E-7
         2545.762     1.434491E-7
         2548.027     1.363223E-7
         2550.292     1.301214E-7
         2552.562     1.303321E-7
         2554.833     1.305421E-7
         2557.106     1.307513E-7
          2559.38     1.309596E-7
         2561.655     1.257421E-7
         2563.935     1.184579E-7
         2566.216     1.111426E-7
         2568.498     1.038011E-7
         2570.781     9.900842E-8
         2573.069     9.916872E-8
         2575.358     9.932842E-8
         2577.648     9.948745E-8
         2579.942     9.964604E-8
         2582.236     9.980875E-8
         2584.533     9.997110E-8
         2586.833     1.001329E-7
         2589.135     1.002941E-7
         2591.435     1.004575E-7
         2593.741     1.006223E-7
         2596.049     1.007866E-7
         2598.357     1.009501E-7
         2600.669     1.011147E-7
         2602.981     1.012824E-7
         2605.297     1.014496E-7
         2607.614     1.016161E-7
         2609.936     1.017822E-7
         2612.256     9.428522E-8
         2614.579     8.653608E-8
         2616.906     7.874762E-8
         2619.232     7.093060E-8
         2621.564     6.842392E-8
         2623.894     6.853934E-8
         2626.229     6.865449E-8
         2628.565     6.876920E-8
         2630.904     6.888494E-8
         2633.243     6.900245E-8
         2635.585     6.911954E-8
          2637.93     6.923626E-8
         2640.275     7.030772E-8
         2642.625     7.858756E-8
         2644.976     8.690233E-8
         2647.328     9.524579E-8
         2649.683     1.036291E-7
         2652.039     1.049147E-7
         2654.399     1.050941E-7
         2656.759     1.052726E-7
         2659.123     1.054505E-7
         2661.489     1.003885E-7
         2663.854     9.221778E-8
         2666.224     8.400097E-8
         2668.598     7.574234E-8
         2670.971     6.745896E-8
         2673.346     5.913995E-8
         2675.724     5.077899E-8
         2678.104     4.238738E-8
         2680.486     3.569005E-8
          2682.87     3.575081E-8
         2685.258     3.581139E-8
         2687.645     3.587161E-8
         2690.036     3.606063E-8
         2692.429     4.473554E-8
         2694.823     5.344257E-8
         2697.221     6.219047E-8
         2699.619     7.096839E-8
         2702.021     7.989227E-8
         2704.424     8.889085E-8
         2706.829     9.795337E-8
         2709.239     1.070902E-7
         2711.648     1.041741E-7
         2714.059     9.561761E-8
         2716.474     8.699180E-8
         2718.891     7.830168E-8
         2721.308     7.442167E-8
         2723.729     7.465783E-8
         2726.153     7.489425E-8
         2728.577     7.513082E-8
         2731.003     7.536795E-8
         2733.433     7.560590E-8
         2735.865     7.584413E-8
         2738.298     7.608247E-8
         2740.733     7.911735E-8
         2743.171     8.870192E-8
         2745.612     9.835288E-8
         2748.055     1.080714E-7
         2750.499     1.177961E-7
         2752.946     1.273498E-7
         2755.394     1.369225E-7
         2757.845     1.465249E-7
         2760.299     1.549921E-7
         2762.752     1.551150E-7
          2765.21     1.552382E-7
          2767.67     1.553616E-7
         2770.131     1.554849E-7
         2772.596     1.556076E-7
         2775.063     1.557303E-7
         2777.531     1.558532E-7
            2780.     1.559752E-7
         2782.475     1.464377E-7
         2784.949     1.368871E-7
         2787.427     1.273085E-7
         2789.906     1.177121E-7
         2792.386     1.080900E-7
         2794.873     9.843239E-8
         2797.356     8.876967E-8
         2799.845     7.907144E-8
         2802.336     6.934886E-8
          2804.83     5.960419E-8
         2807.324     4.984135E-8
         2809.822     4.004976E-8
          2812.32     3.937559E-8
         2814.821     3.940360E-8
         2817.325     3.943165E-8
         2819.833     3.945977E-8
         2822.339     3.025056E-8
          2824.85     2.034849E-8
         2827.362     1.042985E-8
         2829.878    4.839837E-10
         2832.396     9.486135E-9
         2834.914     1.947168E-8
         2837.437     2.948530E-8
         2839.959     3.951537E-8
         2842.485     5.943276E-8
         2845.015     7.957782E-8
         2847.545     9.974320E-8
         2850.077     1.190316E-7
         2852.613     1.090137E-7
         2855.151     9.897418E-8
          2857.69     8.891888E-8
         2860.233     7.883499E-8
         2862.777     6.872929E-8
         2865.323     5.860705E-8
         2867.871     4.846340E-8
         2870.423     4.167057E-8
         2872.976     5.191171E-8
         2875.531     6.216906E-8
         2878.088     7.244755E-8
         2880.649     8.535366E-8
         2883.212     1.059601E-7
         2885.775     1.265969E-7
         2888.343     1.472897E-7
         2890.913     1.643564E-7
         2893.483     1.747832E-7
         2896.058     1.852377E-7
         2898.633     1.957072E-7
          2901.21     1.962816E-7
         2903.792     1.856632E-7
         2906.375     1.750625E-7
         2908.961     1.644775E-7
         2911.546     1.601105E-7
         2914.137     1.599041E-7
          2916.73     1.596972E-7
         2919.323     1.594899E-7
         2921.922     1.669356E-7
         2924.519     1.770423E-7
         2927.121     1.871422E-7
         2929.725     1.972230E-7
         2932.332     1.980451E-7
         2934.941     1.977770E-7
         2937.549     1.975086E-7
         2940.163     1.972394E-7
         2942.779     1.969699E-7
         2945.397     1.966998E-7
         2948.016     1.964292E-7
         2950.637     1.911554E-7
         2953.263     1.703148E-7
         2955.889     1.495281E-7
         2958.519     1.287685E-7
         2961.153     1.170290E-7
         2963.784     1.168624E-7
         2966.421     1.166952E-7
         2969.061     1.165277E-7
         2971.701     1.229554E-7
         2974.343     1.330100E-7
          2976.99     1.430503E-7
         2979.638     1.530687E-7
         2982.286     1.366069E-7
         2984.939     1.159720E-7
         2987.597     9.536574E-8
         2990.253     7.580080E-8
         2992.914     6.548873E-8
         2995.575     5.520447E-8
         2998.239     4.494248E-8
         3000.907     3.815496E-8
         3003.575     3.809643E-8
         3006.249     3.803772E-8
         3008.921     3.797899E-8
         3011.598     4.397843E-8
         3014.277     5.405558E-8
         3016.958     6.410283E-8
         3019.642     7.413378E-8
         3022.327     6.659787E-8
         3025.016     5.637541E-8
         3027.706     4.618135E-8
         3030.398     3.750355E-8
         3033.096     3.744308E-8
         3035.793     3.738257E-8
         3038.494     3.732191E-8
         3041.198     3.726114E-8
           3043.9     3.720032E-8
         3046.608     3.713932E-8
         3049.319     3.707818E-8
         3052.032     4.453937E-8
         3054.748     5.449976E-8
         3057.462     6.442389E-8
         3060.183     7.433574E-8
         3062.905     8.422173E-8
         3065.629     9.407734E-8
         3068.356     1.039131E-7
         3071.085     1.057808E-7
         3073.817     9.562049E-8
         3076.551     8.549233E-8
         3079.288     7.538287E-8
         3082.028     7.266494E-8
         3084.768     7.253865E-8
         3087.513     7.241201E-8
         3090.258     7.135255E-8
         3093.006     6.131248E-8
         3095.758     5.129304E-8
         3098.512     4.129970E-8
         3101.269     3.594219E-8
         3104.025     3.599635E-8
         3106.787     3.605066E-8
         3109.551     3.610506E-8
         3112.316     3.615951E-8
         3115.087     3.621412E-8
         3117.855     3.626871E-8
         3120.631     3.632350E-8
         3123.406     3.637832E-8
         3126.185     3.643326E-8
         3128.967     3.648828E-8
         3131.749     3.654318E-8
         3134.533     3.659806E-8
         3137.322     3.665304E-8
         3140.114     3.712576E-8
         3142.906     4.744716E-8
         3145.701     5.780869E-8
           3148.5     6.821677E-8
         3151.301     7.386111E-8
         3154.103     7.397215E-8
         3156.911     7.408354E-8
         3159.716     7.419488E-8
         3162.528     7.430663E-8
         3165.342     7.441855E-8
         3168.158     7.453066E-8
         3170.975     7.828093E-8
         3173.794     8.893693E-8
         3176.618     9.964121E-8
         3179.443     1.103800E-7
          3182.27     1.126371E-7
         3185.103     1.128072E-7
         3187.936     1.129773E-7
         3190.772     1.131475E-7
         3193.609     1.133173E-7
         3196.451     1.134875E-7
         3199.293     1.136578E-7
         3202.138     9.760640E-8
         3204.989     7.608690E-8
          3207.84     5.449688E-8
         3210.691     3.548172E-8
         3213.547     2.463091E-8
         3216.407     1.373691E-8
         3219.267     2.807997E-9
         3222.129     8.164262E-9
         3224.996     1.918645E-8
         3227.865     3.025120E-8
         3230.734     3.851860E-8
         3233.612     3.857675E-8
         3236.487     3.863488E-8
         3239.365     3.869309E-8
         3242.247     4.746053E-8
          3245.13     5.872189E-8
         3248.016     7.002683E-8
         3250.906     7.433098E-8
         3253.798     6.316687E-8
         3256.693     5.195838E-8
         3259.587     4.071960E-8
         3262.489     3.916439E-8
          3265.39     3.922363E-8
         3268.294     3.928296E-8
         3271.202     4.407026E-8
          3274.11     5.559843E-8
         3277.024     6.718001E-8
         3279.939     7.880548E-8
         3282.858     7.916576E-8
         3285.779     7.928595E-8
         3288.698     7.940618E-8
         3291.625     7.952723E-8
         3294.553     7.964884E-8
         3297.481     7.977049E-8
         3300.415     7.989253E-8
         3303.351     8.001488E-8
          3306.29     8.013743E-8
         3309.229     8.026003E-8
         3312.175     7.164329E-8
         3315.122     5.989050E-8
         3318.069     4.809849E-8
         3321.022     3.625149E-8
         3323.975     2.436603E-8
         3326.932     1.242521E-8
          3329.89    4.446514E-10
         3332.853     1.159174E-8
         3335.819     2.367535E-8
         3338.785     3.579932E-8
         3341.754     4.081522E-8
         3344.727     4.087857E-8
         3347.703     4.094203E-8
         3350.681     4.100560E-8
         3353.659     4.106928E-8
         3356.643     4.113314E-8
         3359.629     4.119711E-8
         3362.617     4.126124E-8
          3365.61     4.132557E-8
         3368.601     4.138988E-8
         3371.598     4.808070E-8
         3374.598     6.061215E-8
         3377.601     7.319296E-8
         3380.604     8.330051E-8
          3383.61     8.343157E-8
         3386.621     8.356295E-8
         3389.632     8.369446E-8
         3392.648     1.060241E-7
         3395.667     1.315362E-7
         3398.686     1.571371E-7
          3401.71     1.756552E-7
         3404.737     1.887010E-7
         3407.764     2.017907E-7
         3410.794     2.082130E-7
         3413.829     1.956835E-7
         3416.866     1.831019E-7
         3419.906     1.704675E-7
         3422.946     1.828868E-7
         3425.991     1.961709E-7
         3429.039     2.095098E-7
         3432.088     2.228961E-7
         3435.142     2.363461E-7
         3438.197     2.498421E-7
         3441.256     2.634019E-7
         3444.316     2.770097E-7
         3447.382     2.906892E-7
         3450.448     3.044081E-7
         3453.516     3.181864E-7
         3456.588     3.320295E-7
         3459.662     3.459199E-7
          3462.74     3.360415E-7
         3465.819     3.231792E-7
         3468.903     3.102538E-7
         3471.989     3.233613E-7
         3475.074     3.509128E-7
         3478.168     3.786331E-7
         3481.261     4.673793E-7
         3484.359     6.453407E-7
         3487.459     8.240508E-7
         3490.558     1.050095E-6
         3493.667     1.491918E-6
         3496.772     1.934489E-6
         3499.883     2.379516E-6
         3502.997     3.306052E-6
          3506.11     4.254050E-6
          3509.23     5.207330E-6
         3512.352     7.099880E-6
         3515.477     9.307570E-6
         3518.603     1.152346E-5
         3521.732     1.501629E-5
         3524.867     1.955517E-5
         3528.001     2.410778E-5
         3531.138     3.013933E-5
          3534.28     3.877175E-5
         3537.423     4.743605E-5
          3540.57     5.734954E-5
          3543.72     7.276831E-5
         3546.874     8.825466E-5
         3550.025     1.038684E-4
         3553.184     1.294773E-4
         3556.345     1.551971E-4
         3559.508     1.810120E-4
         3562.673     2.183489E-4
         3565.843     2.579765E-4
         3569.015     2.977825E-4
         3572.191     3.492794E-4
         3575.367     4.061658E-4
         3578.548     4.633346E-4
          3581.73     5.296029E-4
         3584.915     6.036469E-4
         3588.107     6.781000E-4
         3591.297     7.514613E-4
         3594.491     8.231865E-4
         3597.689     8.952687E-4
          3600.89     9.580142E-4
         3604.092     9.958509E-4
         3607.296     0.001033851
         3610.506     0.001072042
         3613.719     0.001110392
          3616.93      0.00114886
         3620.152     0.001187593
         3623.369     0.001226425
         3626.593     0.001265474
          3629.82     0.001304695
         3633.047     0.001344052
         3636.278      0.00138358
         3639.513     0.001423305
         3642.751     0.001557026
         3645.992     0.001717759
         3649.232     0.001879181
         3652.481     0.002048738
         3655.729      0.00222468
         3658.979     0.002432147
         3662.235     0.002649274
         3665.493     0.002880271
         3668.753     0.003128716
         3672.015     0.003380896
         3675.284     0.003654518
         3678.554     0.003932929
         3681.823     0.004233027
         3685.099     0.004546851
         3688.378     0.004865194
         3691.656     0.005209478
          3694.94      0.00556717
         3698.228     0.005934885
         3701.518     0.006304034
         3704.807     0.006686592
         3708.106     0.007077079
         3711.405     0.007476297
         3714.705     0.007866987
          3718.01     0.008266358
         3721.316     0.008678252
         3724.625      0.00907991
         3727.939     0.009480673
         3731.256     0.009883827
         3734.576      0.01029345
         3737.895      0.01070481
         3741.223      0.01109966
         3744.549      0.01148778
         3747.881      0.01187349
         3751.216      0.01224878
         3754.549      0.01262231
          3757.89      0.01300327
         3761.233      0.01337007
          3764.58      0.01373518
         3767.927      0.01408552
         3771.278      0.01444135
         3774.633      0.01481704
         3777.991      0.01517651
         3781.351      0.01554656
         3784.715       0.0158979
         3788.081      0.01627289
         3791.451      0.01664618
         3794.824      0.01702096
         3798.199      0.01739963
         3801.578      0.01779706
         3804.958       0.0182036
         3808.344      0.01858266
         3811.732      0.01899321
         3815.122      0.01940236
         3818.514      0.01982059
         3821.912      0.02027249
         3825.312      0.02073713
         3828.714      0.02118092
          3832.12      0.02164645
         3835.528         0.02212
          3838.94      0.02258673
         3842.356      0.02306234
         3845.772      0.02356118
         3849.192      0.02405277
         3852.617      0.02456082
         3856.045      0.02507382
         3859.476       0.0256044
         3862.905        0.026123
         3866.342      0.02663547
         3869.782      0.02712524
         3873.223      0.02763642
         3876.672      0.02815482
         3880.117      0.02864141
         3883.569      0.02914144
         3887.024      0.02961965
          3890.48      0.03010822
         3893.942      0.03057771
         3897.405      0.03104099
         3900.872      0.03148113
         3904.343      0.03194409
         3907.813      0.03236377
         3911.292       0.0327568
          3914.77      0.03314005
         3918.253      0.03350825
         3921.737      0.03391986
         3925.224      0.03427808
         3928.716      0.03459697
         3932.212      0.03495236
         3935.711      0.03525646
         3939.212      0.03556873
         3942.713      0.03589058
         3946.221      0.03616496
         3949.732      0.03643019
         3953.244      0.03673671
         3956.761       0.0369767
          3960.28      0.03721614
         3963.803      0.03749211
         3967.328      0.03772802
         3970.858      0.03799517
         3974.391      0.03819655
         3977.925       0.0384492
         3981.464      0.03871414
         3985.005      0.03896185
         3988.548      0.03918556
         3992.097      0.03942586
         3995.649      0.03969631
         3999.204      0.03997772
         4002.758      0.04019848
         4006.319       0.0403704
         4009.884       0.0405637
         4013.451      0.04074662
         4017.022      0.04092228
         4020.592      0.04115038
         4024.169      0.04132836
          4027.75      0.04153245
         4031.333      0.04171776
          4034.92       0.0419535
         4038.506      0.04215556
         4042.099       0.0423964
         4045.696      0.04262843
         4049.295      0.04278804
         4052.898      0.04299815
           4056.5      0.04326234
         4060.109      0.04344925
         4063.721      0.04364293
         4067.337      0.04386266
         4070.954      0.04406712
         4074.573      0.04428511
         4078.199      0.04445894
         4081.827      0.04460026
         4085.457       0.0448096
         4089.092       0.0450255
         4092.728      0.04516538
         4096.369       0.0453335
         4100.012      0.04546129
          4103.66      0.04558764
         4107.309      0.04572798
         4110.963      0.04585026
         4114.621      0.04600965
         4118.279      0.04609826
         4121.941      0.04615472
         4125.609      0.04623009
          4129.28      0.04630442
         4132.954      0.04639885
         4136.626      0.04642663
         4140.307       0.0464662
         4143.991      0.04649941
         4147.675      0.04654225
         4151.368      0.04658495
          4155.06       0.0465531
         4158.754      0.04652787
         4162.454      0.04654046
         4166.156      0.04653826
         4169.862       0.0465337
          4173.57      0.04651698
         4177.284        0.046468
            4181.      0.04646069
         4184.716       0.0464148
         4188.441      0.04640508
         4192.166      0.04639601
         4195.896      0.04638584
         4199.629      0.04631289
         4203.361      0.04631803
         4207.101       0.0464017
         4210.844      0.04644345
          4214.59      0.04649341
         4218.338      0.04653488
         4222.089      0.04658025
         4225.846       0.0466567
         4229.605      0.04675243
         4233.366      0.04678055
         4237.133      0.04687601
           4240.9      0.04696426
         4244.674      0.04704399
         4248.448      0.04714314
         4252.229      0.04726546
         4256.009      0.04738884
         4259.796      0.04750145
         4263.586      0.04767681
         4267.377      0.04784214
         4271.174       0.0479554
         4274.972      0.04814221
         4278.776      0.04830602
         4282.583      0.04846463
         4286.388      0.04863747
         4290.205      0.04883637
          4294.02      0.04908245
          4297.84      0.04925177
         4301.664      0.04947569
         4305.489      0.04966174
         4309.317      0.04985691
         4313.151      0.05005598
         4316.989      0.05026974
          4320.83      0.05045958
          4324.67      0.05066748
         4328.518      0.05083527
         4332.369      0.05104943
         4336.224      0.05123864
         4340.082      0.05140061
         4343.938        0.051613
         4347.803      0.05182557
         4351.672      0.05198568
         4355.544      0.05216158
         4359.417      0.05227987
         4363.293      0.05243679
         4367.175      0.05253013
         4371.061      0.05264573
         4374.948      0.05273368
          4378.84      0.05276825
         4382.734      0.05281119
         4386.633      0.05286372
         4390.534      0.05290742
          4394.44       0.0528816
         4398.348      0.05286901
         4402.261       0.0528655
         4406.178      0.05280559
         4410.099      0.05279194
         4414.018      0.05272639
         4417.945      0.05268729
         4421.875      0.05261465
          4425.81      0.05249999
         4429.745      0.05238162
         4433.684      0.05228139
         4437.629      0.05212951
         4441.575      0.05202613
         4445.529      0.05192446
         4449.482      0.05181749
         4453.438       0.0516557
         4457.401      0.05151249
         4461.364      0.05141803
         4465.334      0.05125076
         4469.305      0.05111175
         4473.281      0.05103232
         4477.261        0.050933
          4481.24      0.05083867
         4485.227      0.05075577
         4489.218       0.0506632
         4493.212      0.05059963
         4497.207      0.05052397
         4501.206      0.05048264
         4505.213      0.05060147
         4509.219      0.05076054
         4513.231      0.05094748
         4517.247       0.0511792
         4521.261      0.05137948
         4525.284      0.05155092
         4529.311      0.05181863
          4533.34      0.05202686
         4537.371      0.05222782
         4541.408      0.05247604
         4545.447       0.0528441
         4549.491      0.05310947
         4553.536      0.05346853
         4557.585      0.05382114
          4561.64      0.05410444
         4565.699      0.05450516
         4569.761      0.05485624
         4573.827      0.05523838
         4577.892      0.05561009
         4581.965      0.05610057
         4586.042       0.0564618
          4590.12      0.05685592
         4594.204      0.05730929
         4598.289      0.05773687
          4602.38      0.05818475
         4606.472      0.05859927
         4610.568      0.05908071
          4614.67      0.05946909
         4618.776      0.05984933
         4622.886      0.06030462
         4626.999      0.06073265
         4631.113      0.06108183
         4635.231      0.06151615
         4639.355      0.06181412
         4643.483      0.06217056
         4647.612      0.06243956
         4651.748      0.06276583
         4655.884      0.06311195
         4660.026      0.06338023
          4664.17      0.06366191
         4668.317      0.06384471
         4672.471      0.06401014
         4676.628      0.06415968
         4680.789      0.06428748
         4684.954      0.06437173
         4689.117      0.06451731
         4693.289      0.06456118
         4697.465      0.06456494
         4701.645      0.06462695
         4705.825      0.06461011
         4710.012      0.06459829
           4714.2       0.0645082
         4718.392       0.0644325
          4722.59      0.06430219
          4726.79      0.06422827
         4730.995      0.06414252
         4735.205      0.06405959
         4739.417      0.06394812
         4743.629      0.06384958
          4747.85      0.06374239
         4752.074      0.06366103
         4756.302        0.063499
         4760.532      0.06337962
         4764.767      0.06324891
         4769.004      0.06315472
         4773.247      0.06309719
         4777.492      0.06305552
         4781.742      0.06300903
         4785.994      0.06295159
         4790.252      0.06299343
         4794.515      0.06297968
          4798.78       0.0630191
         4803.045      0.06302879
         4807.318      0.06306488
         4811.596      0.06310961
         4815.877      0.06328199
         4820.162      0.06333537
         4824.448      0.06347106
         4828.737      0.06362549
         4833.034      0.06378736
         4837.332      0.06400359
         4841.635      0.06419783
          4845.94      0.06441997
         4850.252      0.06463516
         4854.567      0.06486344
         4858.881      0.06512924
         4863.205       0.0653619
         4867.532      0.06566956
         4871.862      0.06598949
         4876.197      0.06629404
         4880.533      0.06659526
         4884.875      0.06691393
         4889.219      0.06721543
         4893.566      0.06757804
          4897.92      0.06787837
         4902.276      0.06825328
         4906.638      0.06859036
         4911.003      0.06890216
         4915.373      0.06926809
         4919.741      0.06960326
         4924.118      0.06996826
         4928.499      0.07029661
         4932.884      0.07062683
         4937.273      0.07094861
         4941.664      0.07123876
         4946.058      0.07160585
         4950.458      0.07195648
          4954.86      0.07235844
         4959.269      0.07266266
         4963.679      0.07308098
         4968.095       0.0734342
         4972.515      0.07389121
         4976.934      0.07429416
         4981.362      0.07471483
         4985.794      0.07521444
          4990.23      0.07570622
          4994.67      0.07626412
         4999.112       0.0768647
          5003.56      0.07745316
         5008.009      0.07813402
         5012.464      0.07885075
         5016.921      0.07957891
         5021.385      0.08035954
          5025.85      0.08110427
         5030.322       0.0819337
         5034.795      0.08279259
         5039.272      0.08351868
         5043.755      0.08435046
         5048.243      0.08506203
         5052.735      0.08572327
          5057.23      0.08618788
         5061.727       0.0865939
         5066.228       0.0867051
         5070.736      0.08666099
         5075.248      0.08627434
          5079.76      0.08560585
          5084.28      0.08457023
         5088.801      0.08307965
         5093.329      0.08121303
         5097.857       0.0788726
         5102.391      0.07612834
          5106.93      0.07304522
         5111.474      0.06965547
         5116.022      0.06593139
         5120.574      0.06199399
         5125.124      0.05797159
         5129.684      0.05384642
         5134.249      0.04973662
         5138.813       0.0457872
         5143.386      0.04197505
         5147.959       0.0383231
          5152.54      0.03491207
         5157.122      0.03170577
         5161.707      0.02874221
           5166.3      0.02608375
         5170.896      0.02362659
         5175.497      0.02136551
         5180.102      0.01930245
         5184.708      0.01744877
         5189.318      0.01577958
         5193.936      0.01426747
         5198.557      0.01291778
         5203.179      0.01170395
         5207.809      0.01060872
         5212.439     0.009638829
         5217.077     0.008761287
         5221.716     0.007972073
         5226.359     0.007267398
         5231.009     0.006636916
         5235.664     0.006053522
         5240.322     0.005538882
         5244.984     0.005063171
         5249.646     0.004650217
         5254.316     0.004272528
         5258.991     0.003926442
          5263.67     0.003614042
         5268.351     0.003233564
         5273.038     0.002515643
         5277.727     0.002334151
          5282.42     0.002168849
          5287.12     0.002018763
         5291.821     0.001878232
         5296.529     0.001753419
         5301.242     0.001633578
         5305.959      0.00152942
         5310.674     0.001427216
         5315.399     0.001339655
         5320.128     0.001251853
         5324.862     0.001177857
         5329.597      0.00110337
         5334.339     0.001039385
         5339.082     9.760163E-4
         5343.833     9.205705E-4
         5348.584     8.667873E-4
          5353.34     8.186689E-4
         5358.103     7.727527E-4
          5362.87     7.306434E-4
         5367.642     6.909692E-4
         5372.417     6.538608E-4
         5377.192     6.193089E-4
         5381.976     5.865819E-4
         5386.765     5.566310E-4
         5391.558     5.278929E-4
         5396.354     5.019270E-4
         5401.153     4.766891E-4
         5405.956     4.541274E-4
         5410.766     4.318795E-4
         5415.577     4.120817E-4
         5420.396     3.923503E-4
         5425.215     3.749631E-4
         5430.042     3.574643E-4
         5434.874     3.420080E-4
         5439.703     3.264641E-4
         5444.543     3.126361E-4
         5449.387     2.988327E-4
         5454.236     2.864484E-4
         5459.089     2.741984E-4
         5463.943     2.630494E-4
         5468.804     2.520899E-4
         5473.667     2.420672E-4
         5478.534     2.323051E-4
         5483.409     2.232417E-4
         5488.285     2.144547E-4
         5493.168     2.062834E-4
         5498.055     1.984270E-4
         5502.947     1.910180E-4
         5507.837     1.839023E-4
         5512.738     1.772223E-4
         5517.643     1.708880E-4
         5522.552     1.648405E-4
         5527.466     1.590590E-4
         5532.381     1.535198E-4
           5537.3     1.482403E-4
         5542.227     1.431828E-4
         5547.158     1.384089E-4
          5552.09     1.338267E-4
         5557.027     1.295144E-4
         5561.972     1.253267E-4
          5566.92     1.213463E-4
         5571.871     1.174912E-4
         5576.825     1.138566E-4
         5581.787     1.103382E-4
         5586.753     1.070498E-4
         5591.724     1.038325E-4
         5596.699     1.007690E-4
         5601.676     9.774286E-5
         5606.657     9.481038E-5
         5611.645     9.197544E-5
         5616.635     8.935589E-5
         5621.632     8.679017E-5
         5626.631     8.435161E-5
         5631.637     8.196852E-5
         5636.645     7.971430E-5
         5641.657     7.751913E-5
         5646.676     7.545066E-5
         5651.701     7.344344E-5
         5656.729     7.156423E-5
         5661.762     6.974969E-5
         5666.796     6.806302E-5
         5671.835     6.654433E-5
         5676.882     6.532425E-5
         5681.933     6.428410E-5
         5686.985     6.353862E-5
         5692.045     6.186788E-5
         5697.106     5.883041E-5
         5702.175     5.652550E-5
         5707.246     5.520631E-5
         5712.321     5.394601E-5
         5717.403     5.275643E-5
          5722.49     5.156233E-5
         5727.582     5.036405E-5
         5732.678     4.923531E-5
         5737.772     4.817079E-5
         5742.877     4.714053E-5
         5747.987     4.613708E-5
         5753.101     4.517351E-5
         5758.217     4.423530E-5
         5763.337     4.334015E-5
         5768.465     4.246610E-5
         5773.594     4.163914E-5
         5778.731     4.082989E-5
         5783.869     4.001877E-5
         5789.016     3.920432E-5
         5794.166     3.844493E-5
         5799.322     3.769645E-5
         5804.481     3.700883E-5
          5809.64     3.632918E-5
         5814.809     3.571341E-5
         5819.982     3.510047E-5
         5825.157     3.441352E-5
          5830.34     3.373299E-5
         5835.524     3.318705E-5
         5840.713     3.263923E-5
          5845.91     3.208955E-5
         5851.108     3.153813E-5
         5856.314     3.098396E-5
         5861.525     3.044973E-5
          5866.74     2.996649E-5
          5871.96     2.950949E-5
         5877.178     2.909792E-5
         5882.407     2.864996E-5
         5887.641     2.815993E-5
         5892.879     2.770947E-5
          5898.12     2.729151E-5
         5903.367     2.687182E-5
         5908.617     2.645086E-5
         5913.874     2.608428E-5
         5919.132     2.573664E-5
         5924.396     2.532392E-5
         5929.667     2.489687E-5
         5934.942     2.461172E-5
         5940.223     2.433200E-5
         5945.508     2.397779E-5
         5950.792     2.362274E-5
         5956.086     2.326599E-5
         5961.386     2.292824E-5
          5966.69     2.264665E-5
         5971.996     2.236405E-5
         5977.306     2.208022E-5
         5982.624     2.179534E-5
         5987.944     2.150978E-5
         5993.271     2.122300E-5
         5998.601     2.093535E-5
         6003.938     2.068795E-5
          6009.28     2.045493E-5
         6014.626     2.015389E-5
         6019.971     1.984234E-5
         6025.328     1.960831E-5
         6030.688     1.937444E-5
         6036.054     1.914026E-5
         6041.425     1.890579E-5
         6046.797     1.867116E-5
         6052.173     1.843639E-5
         6057.559     1.820134E-5
         6062.945     1.796599E-5
         6068.339     1.773006E-5
         6073.735     1.754917E-5
         6079.139     1.739253E-5
         6084.548     1.716872E-5
         6089.955     1.693223E-5
         6095.374     1.669516E-5
         6100.797     1.646954E-5
         6106.225     1.631183E-5
         6111.658     1.615394E-5
         6117.092     1.599593E-5
         6122.535     1.580028E-5
         6127.979     1.556168E-5
         6133.432     1.537318E-5
         6138.885     1.521438E-5
         6144.344     1.505558E-5
         6149.811     1.489655E-5
         6155.283     1.473704E-5
         6160.759     1.457735E-5
         6166.234     1.441767E-5
          6171.72     1.425760E-5
         6177.211     1.409734E-5
         6182.708     1.393687E-5
         6188.208     1.377621E-5
         6193.711     1.367023E-5
         6199.218     1.359058E-5
         6204.734     1.344089E-5
         6210.251     1.327958E-5
         6215.777     1.311776E-5
         6221.304     1.295591E-5
         6226.839     1.279393E-5
         6232.379     1.266682E-5
         6237.921     1.258620E-5
         6243.468     1.245439E-5
         6249.023     1.229169E-5
         6254.583     1.219633E-5
         6260.148     1.211308E-5
         6265.718     1.194941E-5
          6271.29     1.180475E-5
         6276.866     1.172344E-5
         6282.451     1.164190E-5
         6288.037     1.156021E-5
         6293.632     1.142469E-5
         6299.228     1.126006E-5
         6304.833     1.116661E-5
         6310.439     1.108452E-5
          6316.05     1.100217E-5
         6321.669     1.089499E-5
         6327.294     1.072921E-5
         6332.924     1.060652E-5
         6338.559     1.052375E-5
         6344.195     1.044080E-5
         6349.836     1.035773E-5
         6355.486     1.027452E-5
         6361.141     1.019119E-5
         6366.797     1.010769E-5
         6372.458     9.987739E-6
         6378.128     9.820135E-6
         6383.803     9.708640E-6
         6389.479     9.624810E-6
         6395.161     9.540738E-6
         6400.851     9.456502E-6
         6406.546     9.372041E-6
         6412.246     9.287511E-6
         6417.951     9.202911E-6
         6423.654     9.118237E-6
          6429.37     9.033315E-6
          6435.09     8.948327E-6
         6440.813     8.863291E-6
         6446.543     8.778007E-6
         6452.275     8.692700E-6
         6458.016     8.607277E-6
         6463.758     8.521645E-6
          6469.51     8.435784E-6
         6475.262     8.349914E-6
         6481.023     8.263930E-6
          6486.79     8.177872E-6
         6492.562     8.091632E-6
         6498.338     8.005176E-6
         6504.113     7.910881E-6
           6509.9     7.813414E-6
         6515.692     7.716003E-6
         6521.486     7.618793E-6
         6527.288     7.521619E-6
         6533.096     7.424563E-6
         6538.901     7.327757E-6
         6544.719     7.299935E-6
         6550.542     7.280252E-6
         6556.367     7.183619E-6
         6562.201     7.087126E-6
         6568.039     6.990838E-6
         6573.883     6.894581E-6
         6579.725     6.798567E-6
         6585.579     6.783281E-6
         6591.438     6.751219E-6
           6597.3     6.655528E-6
         6603.169     6.559928E-6
         6609.045     6.464473E-6
         6614.921     6.439633E-6
         6620.803     6.417004E-6
         6626.694     6.321953E-6
         6632.586     6.227086E-6
         6638.488     6.132247E-6
         6644.395     6.100051E-6
         6650.306     6.085026E-6
         6656.223     5.990496E-6
         6662.138     5.926516E-6
         6668.066     5.915982E-6
         6673.999     5.849159E-6
         6679.937     5.755269E-6
         6685.876     5.661682E-6
         6691.825     5.593749E-6
         6697.776     5.583523E-6
         6703.731     5.573300E-6
         6709.696     5.563068E-6
         6715.666     5.474194E-6
         6721.637     5.404058E-6
         6727.618     5.394094E-6
         6733.604     5.334323E-6
         6739.587     5.241906E-6
         6745.584     5.226421E-6
         6751.586     5.194849E-6
         6757.593     5.102787E-6
         6763.602     5.060214E-6
          6769.62     5.050583E-6
         6775.643     5.041044E-6
         6781.664     5.008867E-6
         6787.698     4.917393E-6
         6793.737     4.876785E-6
         6799.778     4.867434E-6
         6805.828     4.858082E-6
         6811.883     4.848729E-6
         6817.937     4.839388E-6
         6824.003     4.776338E-6
         6830.075     4.686793E-6
         6836.152     4.677714E-6
         6842.234     4.668635E-6
         6848.318     4.659563E-6
         6854.411     4.650489E-6
         6860.506     4.641413E-6
         6866.606     4.632266E-6
         6872.716     4.623156E-6
         6878.831     4.614097E-6
         6884.948     4.605048E-6
         6891.073     4.595994E-6
         6897.205     4.586943E-6
         6903.334     4.577860E-6
         6909.476     4.568727E-6
         6915.624     4.559681E-6
         6921.777     4.550643E-6
         6927.936     4.541609E-6
         6934.096     4.532644E-6
         6940.261     4.527081E-6
         6946.437     4.597709E-6
         6952.613     4.634403E-6
         6958.799     4.625127E-6
         6964.991     4.615930E-6
         6971.184     4.621908E-6
         6977.387     4.691925E-6
         6983.591     4.761652E-6
           6989.8     4.831134E-6
          6996.02     4.824007E-6
         7002.244     4.841133E-6
         7008.475     4.905556E-6
         7014.707     4.969491E-6
         7020.948     5.033075E-6
          7027.19     5.096325E-6
         7033.443     5.159299E-6
         7039.697     5.221909E-6
          7045.96     5.284086E-6
         7052.226     5.373413E-6
           7058.5     5.512250E-6
         7064.777     5.650236E-6
         7071.063     5.787540E-6
          7077.35     5.924009E-6
         7083.647     6.059800E-6
          7089.95     6.194837E-6
         7096.258     6.405042E-6
         7102.568     6.614594E-6
         7108.883     6.823003E-6
         7115.208     7.030410E-6
         7121.539     7.255096E-6
         7127.872     7.535630E-6
         7134.213     7.814900E-6
         7140.557     8.099139E-6
         7146.911     8.450424E-6
         7153.266     8.799661E-6
         7159.626     9.147074E-6
         7165.997     9.563143E-6
         7172.372     9.953644E-6
         7178.754     1.029551E-5
         7185.141     1.069504E-5
         7191.526     1.108864E-5
         7197.925     1.142457E-5
         7204.329     1.170879E-5
         7210.735     1.195053E-5
         7217.151     1.206111E-5
         7223.572     1.208963E-5
         7229.995     1.205313E-5
         7236.424     1.179795E-5
         7242.863     1.144669E-5
         7249.303     1.097658E-5
         7255.753     1.044383E-5
         7262.208     9.856459E-6
          7268.67     9.177053E-6
         7275.137     8.501319E-6
         7281.603     7.811950E-6
         7288.081     7.071271E-6
         7294.566     6.435134E-6
         7301.052     5.844950E-6
         7307.548     5.257378E-6
          7314.05     4.717132E-6
         7320.553     4.212783E-6
         7327.063     3.775590E-6
         7333.582     3.379245E-6
         7340.103     3.018029E-6
         7346.634     2.727627E-6
          7353.17     2.472730E-6
         7359.713     2.255177E-6
         7366.253     2.039062E-6
         7372.807     1.823768E-6
         7379.367     1.609585E-6
         7385.933     1.459203E-6
           7392.5     1.342697E-6
         7399.078     1.269482E-6
         7405.657     1.137506E-6
         7412.242     1.019966E-6
         7418.837     9.481914E-7
         7425.434     8.768509E-7
         7432.041     8.058394E-7
         7438.653     7.352111E-7
         7445.271     7.190841E-7
         7451.896     6.974321E-7
         7458.518     6.276645E-7
         7465.154     5.581734E-7
         7471.796     5.072665E-7
         7478.444     5.056822E-7
         7485.094     5.041012E-7
         7491.753     4.849013E-7
         7498.415     4.166461E-7
         7505.083     3.995360E-7
          7511.76     3.983128E-7
         7518.444     3.970912E-7
         7525.129     3.958712E-7
         7531.825     3.766485E-7
         7538.526     3.095743E-7
         7545.225     2.941630E-7
         7551.938     2.932507E-7
         7558.658     2.923393E-7
         7565.383     2.914284E-7
          7572.11     2.905190E-7
         7578.847     2.896098E-7
          7585.59     2.887018E-7
         7592.335     2.877952E-7
         7599.086     2.868894E-7
         7605.848     2.859837E-7
         7612.611     2.602694E-7
         7619.384     1.952872E-7
         7626.163     1.888482E-7
          7632.94     1.882474E-7
         7639.731     1.876466E-7
         7646.529     1.870465E-7
         7653.333     1.864468E-7
         7660.142     1.858478E-7
         7666.953     1.852499E-7
         7673.775     1.846521E-7
         7680.598     1.840553E-7
         7687.428     1.834591E-7
         7694.268     1.828633E-7
         7701.114     1.822680E-7
         7707.961     1.816738E-7
         7714.819     1.810799E-7
         7721.684     1.804866E-7
          7728.55     1.798944E-7
         7735.422     1.793027E-7
         7742.304     1.787114E-7
         7749.193     1.781209E-7
         7756.088     1.775311E-7
         7762.984     1.769422E-7
         7769.887     1.763541E-7
           7776.8     1.757663E-7
         7783.715     1.751797E-7
         7790.641     1.745933E-7
         7797.573     1.740077E-7
         7804.506     1.734233E-7
          7811.45     1.728392E-7
         7818.396     1.722560E-7
         7825.348     1.716739E-7
         7832.311     1.710921E-7
         7839.279     1.705110E-7
         7846.254     1.699309E-7
         7853.231     1.693518E-7
         7860.218     1.687730E-7
         7867.208     1.681956E-7
         7874.208     1.676186E-7
         7881.209     1.670427E-7
         7888.222     1.664675E-7
         7895.235     1.658934E-7
          7902.26     1.653197E-7
         7909.287     1.647472E-7
         7916.324     1.641755E-7
         7923.363     1.636048E-7
         7930.413     1.630345E-7
         7937.469     1.624654E-7
         7944.531     1.618972E-7
         7951.596     1.613302E-7
         7958.666     1.607642E-7
         7965.747     1.601989E-7
         7972.834     1.596344E-7
         7979.924     1.590710E-7
         7987.024     1.585087E-7
         7994.126     3.534539E-7
         8001.239     5.611630E-7
         8008.354     1.684915E-7
         8015.479     1.632184E-7
         8022.606     3.334063E-7
         8029.744     6.068334E-7
         8036.889     8.776854E-7
          8044.04     9.918612E-7
         8051.192     9.143665E-7
         8058.351     4.771576E-7
         8065.521     2.926407E-7
         8072.693     2.442969E-7
         8079.875     2.964064E-7
         8087.064     3.480029E-7
         8094.255     4.929522E-7
         8101.453     6.797091E-7
         8108.661     7.809990E-7
         8115.871     7.537201E-7
         8123.092     7.199504E-7
         8130.319     7.137865E-7
         8137.553     6.584077E-7
         8144.794     6.714598E-7
         8152.032     7.331075E-7
         8159.285     8.307290E-7
         8166.544     9.273358E-7
         8173.806     9.701159E-7
         8181.079     9.275819E-7
         8188.357     6.730277E-7
         8195.639     5.364580E-7
         8202.926     4.743463E-7
         8210.225     4.731912E-7
         8217.525     5.194372E-7
         8224.837     5.652025E-7
         8232.154     5.676446E-7
         8239.479     4.679054E-7
         8246.801     3.693336E-7
         8254.139     3.255448E-7
         8261.482     3.236603E-7
         8268.833     3.217788E-7
         8276.186     2.011758E-7
          8283.55     1.497893E-7
         8290.915     2.186229E-7
         8298.287     4.490266E-7
         8305.671     6.061782E-7
         8313.061     5.881826E-7
         8320.452     3.648582E-7
         8327.855     2.717973E-7
         8335.265     2.761069E-7
         8342.682     3.031416E-7
         8350.095     3.007408E-7
         8357.524     2.553662E-7
         8364.961     1.804025E-7
         8372.398     1.340194E-7
         8379.848     1.781589E-7
         8387.304     3.525856E-7
         8394.757     4.722842E-7
         8402.227     5.200441E-7
         8409.702     4.745542E-7
         8417.185     4.715914E-7
         8424.669     4.154761E-7
         8432.165     3.137796E-7
         8439.667     1.813176E-7
         8447.167     1.750105E-7
         8454.683     2.017867E-7
         8462.205     2.065062E-7
         8469.734     1.188057E-7
         8477.266     1.154132E-7
         8484.809     1.981072E-7
         8492.357     3.410350E-7
         8499.909     5.129191E-7
         8507.467     5.134039E-7
         8515.036     3.972421E-7
         8522.608     2.390744E-7
          8530.19     1.119350E-7
          8537.78     6.882542E-8
         8545.372     5.613976E-8
         8552.971     5.595509E-8
         8560.581     6.549050E-8
         8568.197     1.922673E-7
         8575.821     2.538186E-7
         8583.446     2.189432E-7
         8591.083     1.219405E-7
         8598.723     2.052756E-7
         8606.368     3.228677E-7
         8614.026     2.714407E-7
          8621.69     1.176390E-7
         8629.356     1.586364E-7
         8637.034     3.130035E-7
         8644.719     4.007848E-7
         8652.406     4.146254E-7
           8660.1     3.725764E-7
         8667.805     3.710954E-7
         8675.517     3.404776E-7
         8683.236     2.644638E-7
         8690.957     1.571145E-7
         8698.685     1.564650E-7
         8706.425     2.559171E-7
         8714.166     2.672169E-7
          8721.92     1.862162E-7
          8729.68     1.058366E-7
         8737.442     6.411040E-8
         8745.216     7.734002E-8
         8752.992     1.920550E-7
         8760.775     4.147298E-7
          8768.57     5.301211E-7
         8776.372     3.582540E-7
         8784.181     1.653477E-7
         8791.991     5.930343E-8
         8799.814     9.753109E-8
         8807.639     2.850747E-7
         8815.476     3.412591E-7
         8823.314     3.074379E-7
         8831.165     2.357508E-7
         8839.022     1.968347E-7
         8846.882     1.582828E-7
         8854.748     1.878062E-7
         8862.627     2.241040E-7
         8870.507     1.882428E-7
         8878.399     1.872546E-7
         8886.299     2.449220E-7
         8894.206     1.999700E-7
         8902.114     8.238936E-8
          8910.03     4.608915E-8
         8917.958     1.180675E-7
         8925.888     2.692710E-7
         8933.829     3.603650E-7
         8941.778     3.582988E-7
         8949.729     3.562228E-7
         8957.692     3.881321E-7
         8965.657     3.959285E-7
         8973.634     3.776101E-7
         8981.613     3.405956E-7
         8989.604     3.039527E-7
         8997.604     3.329474E-7
         9005.608     3.889208E-7
         9013.616     4.084060E-7
         9021.631     3.789675E-7
         9029.658     3.765653E-7
         9037.688     3.421938E-7
         9045.729     2.831026E-7
         9053.776     2.306969E-7
         9061.827     2.112470E-7
         9069.885     2.424522E-7
         9077.955     3.692226E-7
         9086.032     3.511713E-7
         9094.111     2.846512E-7
         9102.202     2.536140E-7
         9110.301     3.127836E-7
         9118.402     3.105298E-7
          9126.51     2.580969E-7
          9134.63     1.763652E-7
         9142.758     1.138873E-7
         9150.888     1.130255E-7
         9159.029     1.121588E-7
         9167.179     1.112879E-7
          9175.33     7.117927E-8
         9183.488     3.651155E-8
         9191.659     4.222605E-8
         9199.833     7.124248E-8
         9208.019     7.124747E-8
         9216.211     4.870971E-8
         9224.411     6.592417E-8
         9232.608     1.403982E-7
         9240.822     2.381095E-7
         9249.045     2.079498E-7
         9257.274     1.536488E-7
         9265.506     1.339740E-7
         9273.749     1.078422E-7
         9281.995     5.917436E-8
         9290.249     3.498150E-8
         9298.515     1.145663E-7
         9306.788     2.359688E-7
         9315.063     2.683418E-7
         9323.352     2.187291E-7
         9331.647     1.445439E-7
          9339.95     9.217586E-8
          9348.25     1.158896E-7
         9356.567     1.395645E-7
         9364.893     1.917144E-7
          9373.22     2.439278E-7
          9381.56     2.517758E-7
         9389.906     2.010601E-7
         9398.256     2.215545E-7
         9406.612     1.683094E-7
         9414.982     1.106483E-7
         9423.359     9.106633E-8
         9431.738     1.078324E-7
          9440.13     1.061181E-7
         9448.529     8.268065E-8
         9456.926     1.136961E-7
          9465.34     1.552237E-7
         9473.762     1.576449E-7
          9482.19     1.135140E-7
         9490.622     7.512198E-8
         9499.066     9.445957E-8
         9507.519     1.134861E-7
         9515.972     6.160995E-8
         9524.434     2.330454E-8
         9532.908     2.301595E-8
         9541.385     2.272793E-8
         9549.874     2.244014E-8
         9558.371     4.069699E-8
          9566.87     7.377606E-8
         9575.377     1.095243E-7
         9583.896     1.360566E-7
         9592.424     1.368688E-7
         9600.958     1.055959E-7
         9609.495     1.215925E-7
         9618.046     1.695614E-7
         9626.598     1.788204E-7
         9635.157     1.156652E-7
          9643.73     4.350545E-8
         9652.311     1.901948E-8
         9660.898     2.210398E-8
         9669.489     5.348112E-8
         9678.093     6.922986E-8
         9686.698     5.958761E-8
         9695.312     6.219387E-8
         9703.938     7.615794E-8
         9712.572     7.649341E-8
         9721.208     5.437600E-8
         9729.857     8.200874E-8
          9738.51     1.224925E-7
         9747.174     1.160870E-7
         9755.841     7.302636E-8
         9764.521     3.917322E-8
         9773.209     3.502743E-8
         9781.899     4.161767E-8
         9790.603     2.818235E-8
         9799.309     1.523356E-8
         9808.022     2.517499E-8
         9816.749     3.661815E-8
         9825.483     6.229497E-8
         9834.226     7.880095E-8
          9842.97     6.950458E-8
         9851.728     4.597607E-8
         9860.487     2.521076E-8
         9869.261     3.520360E-8
         9878.036     6.361756E-8
         9886.825     7.674515E-8
         9895.622     8.478972E-8
         9904.421     9.720289E-8
         9913.233     1.101560E-7
         9922.049     9.949414E-8
         9930.871     3.788130E-8
         9939.707     1.073120E-8
         9948.551     1.780318E-8
         9957.402     2.556808E-8
         9966.257     2.719572E-8
         9975.118     2.640223E-8
         9983.993     2.561083E-8
         9992.871     2.007129E-8
         10001.77     8.032242E-9
         10010.66     8.390223E-9
         10019.56     1.509379E-8
         10028.48     2.152581E-8
         10037.39     3.315153E-8
         10046.32     3.624315E-8
         10055.26     3.547504E-8
         10064.21     2.887356E-8
         10073.16     2.037286E-8
         10082.12     2.414915E-8
         10091.09     4.036590E-8
         10100.06     5.055290E-8
         10109.05     2.154058E-8
         10118.04     1.328486E-8
         10127.04     2.012836E-8
         10136.04     3.697014E-8
         10145.06     4.210266E-8
         10154.09     3.609730E-8
         10163.11     3.367709E-8
         10172.15     3.301946E-8
          10181.2     1.962388E-8
         10190.26     1.476285E-8
         10199.33     1.435436E-8
          10208.4     1.785698E-8
         10217.48     2.819180E-8
         10226.57     2.780410E-8
         10235.67     2.069121E-8
         10244.77     1.254963E-8
         10253.88     7.983469E-9
           10263.     1.120409E-8
         10272.13     2.107140E-8
         10281.27     2.658788E-8
         10290.41     1.045723E-8
         10299.56     1.008623E-8
         10308.73     2.102813E-8
          10317.9     2.675412E-8
         10327.08     2.910519E-8
         10336.26     2.699059E-8
         10345.45     2.334658E-8
         10354.66     1.992577E-8
         10363.87     1.770468E-8
         10373.09     1.466470E-8
         10382.31     9.207899E-9
         10391.55     1.011620E-8
         10400.79     1.712994E-8
         10410.05     2.164906E-8
          10419.3     1.701562E-8
         10428.57     1.278350E-8
         10437.85     1.024638E-8
         10447.13     1.146641E-8
         10456.43     1.059716E-8
         10465.72     6.305055E-9
         10475.03     4.334524E-9
         10484.35     6.035220E-9
         10493.68     6.506694E-9
         10503.02     4.538418E-9
         10512.35     4.447230E-9
         10521.71     6.312380E-9
         10531.07     5.325671E-9
         10540.43     4.491759E-9
          10549.8     6.007759E-9
         10559.19     7.451066E-9
         10568.58     8.115761E-9
         10577.99     9.961516E-9
         10587.39     8.455702E-9
         10596.81     6.607194E-9
         10606.24     5.966380E-9
         10615.67     4.165559E-9
         10625.12     2.107795E-9
         10634.56     2.008758E-9
         10644.02     3.496236E-9
         10653.49     4.345143E-9
         10662.97     3.434760E-9
         10672.45     2.924613E-9
         10681.94     4.434731E-9
         10691.45     5.330344E-9
         10700.96     5.657539E-9
         10710.47     5.436908E-9
           10720.     4.257046E-9
         10729.54     3.632974E-9
         10739.08     3.041268E-9
         10748.64     2.481400E-9
          10758.2     1.952785E-9
         10767.77     2.156871E-9
         10777.34     3.140183E-9
         10786.93     4.239982E-9
         10796.53     4.725581E-9
         10806.12     3.969883E-9
         10815.74     3.383285E-9
         10825.36     3.640345E-9
         10834.99     3.298232E-9
         10844.63     2.664226E-9
         10854.28     2.689849E-9
         10863.94     2.869589E-9
         10873.58     3.129619E-9
         10883.27     3.253984E-9
         10892.95     2.765961E-9
         10902.63     2.142851E-9
         10912.33     1.513687E-9
         10922.04    9.113967E-10
         10931.75     1.013439E-9
         10941.47     1.659401E-9
         10951.21     1.773486E-9
         10960.95     2.018040E-9
         10970.71     2.208740E-9
         10980.46     2.217326E-9
         10990.22     2.187775E-9
           11000.     1.362563E-9
