#  Table wf3f569wsys.tab  Mon 12:22:19 02-Jun-97

#      WAVELENGTH      THROUGHPUT
#       angstroms                

            1850.     2.600015E-8
         1851.651     2.252953E-8
         1853.301     1.902681E-8
         1854.956     1.548164E-8
         1856.611     1.190531E-8
         1858.267     8.292687E-9
         1859.925     4.641393E-9
         1861.584     2.466003E-7
         1863.246     5.027902E-7
         1864.909     7.615645E-7
         1866.572     1.022745E-6
         1868.237     1.286535E-6
         1869.904     1.553085E-6
         1871.573     1.623690E-6
         1873.242     1.682764E-6
         1874.913     1.742377E-6
         1876.585     1.802536E-6
          1878.26     1.863289E-6
         1879.937     1.923831E-6
         1881.613     1.626025E-6
         1883.292     1.311405E-6
         1884.973     9.938085E-7
         1886.654     6.735958E-7
         1888.338     3.503610E-7
         1890.023     2.871750E-8
         1891.709     2.561562E-8
         1893.396     2.248549E-8
         1895.086     1.932541E-8
         1896.775     1.614102E-8
         1898.469     1.292228E-8
         1900.163     9.932188E-9
         1901.857     9.320866E-9
         1903.555     8.703076E-9
         1905.254     8.079541E-9
         1906.953     7.450693E-9
         1908.655     6.815699E-9
         1910.357     6.210283E-9
         1912.061     5.731652E-9
         1913.768     5.248336E-9
         1915.476     4.760558E-9
         1917.184     4.268619E-9
         1918.894     3.772188E-9
         1920.606     2.945698E-8
          1922.32     1.034557E-7
         1924.035     1.781082E-7
         1925.752     2.533790E-7
          1927.47     3.293508E-7
         1929.189     4.059450E-7
          1930.91     4.056726E-7
         1932.634     3.359547E-7
         1934.358     2.656077E-7
         1936.084     1.946748E-7
         1937.811     1.230990E-7
          1939.54     5.084213E-8
          1941.27     3.067877E-8
         1943.003     2.951096E-8
         1944.737     2.833186E-8
          1946.47     2.714296E-8
         1948.207     2.594129E-8
         1949.947     2.472754E-8
         1951.685     2.200628E-8
         1953.427     1.920929E-8
         1955.171     1.638697E-8
         1956.913     1.354262E-8
          1958.66     1.066920E-8
         1960.408     8.324526E-9
         1962.157     7.789881E-9
         1963.908     7.249914E-9
         1965.658     6.705631E-9
         1967.413     6.155683E-9
         1969.169     5.600660E-9
         1970.925     5.959294E-8
         1972.684     1.633917E-7
         1974.444     2.680417E-7
         1976.205     3.736107E-7
         1977.969     4.802279E-7
         1979.734     5.876455E-7
           1981.5     5.166947E-7
         1983.268     4.130500E-7
         1985.037     3.085376E-7
         1986.809     2.030387E-7
         1988.581     9.667372E-8
         1990.355     2.059527E-8
         1992.131     6.934738E-8
         1993.908     1.185252E-7
         1995.688     1.681918E-7
         1997.467     2.181950E-7
          1999.25     2.686902E-7
         2001.034     2.614948E-7
         2002.818     2.118746E-7
         2004.606     1.616532E-7
         2006.396     1.109469E-7
         2008.184     5.979265E-8
         2009.976     8.058466E-9
         2011.769     1.225529E-8
         2013.565     1.725606E-8
         2015.362     2.230686E-8
         2017.158     2.740135E-8
         2018.958     3.255226E-8
          2020.76     3.561300E-8
         2022.563     3.575510E-8
         2024.368     3.589758E-8
         2026.173     3.604023E-8
         2027.982     3.618326E-8
         2029.791     3.632645E-8
         2031.602     3.305192E-8
         2033.414     2.929711E-8
         2035.228     2.550447E-8
         2037.044     2.167148E-8
         2038.861     1.780257E-8
         2040.681     1.547574E-8
         2042.502     1.578676E-8
         2044.324     1.610016E-8
         2046.147     1.641608E-8
         2047.974     1.673478E-8
           2049.8     1.705586E-8
          2051.63     3.143627E-8
         2053.461     4.768605E-8
         2055.291     6.407110E-8
         2057.125     8.062934E-8
         2058.961     9.734413E-8
         2060.798     9.911555E-8
         2062.637     8.114551E-8
         2064.477     6.301553E-8
         2066.318     4.471529E-8
         2068.164     2.621941E-8
         2070.007     7.658969E-9
         2071.855     8.613775E-9
         2073.704     9.577070E-9
         2075.553     1.054838E-8
         2077.405     1.152825E-8
         2079.259     1.251763E-8
         2081.113     1.198164E-8
         2082.971     1.041349E-8
         2084.829     8.831943E-9
         2086.688     7.236097E-9
          2088.55     5.624624E-9
         2090.414     4.463293E-9
         2092.279     4.925550E-9
         2094.145     5.391637E-9
         2096.014     5.862061E-9
         2097.885     6.336419E-9
         2099.756     6.814475E-9
          2101.63     1.160444E-8
         2103.503     1.707701E-8
         2105.381     2.260174E-8
          2107.26     2.817390E-8
         2109.139     3.378931E-8
         2111.022     3.461840E-8
         2112.906     3.136159E-8
         2114.789     2.808141E-8
         2116.677     2.476925E-8
         2118.564     2.143136E-8
         2120.455     2.063148E-8
         2122.348     2.795735E-8
         2124.241     3.533528E-8
         2126.135     4.277216E-8
         2128.033     5.027113E-8
         2129.932     5.782965E-8
         2131.832     6.431360E-8
         2133.734     7.080498E-8
         2135.637     7.734382E-8
         2137.544     8.393959E-8
          2139.45     9.059531E-8
         2141.359     8.456330E-8
          2143.27     7.329745E-8
         2145.182     6.194796E-8
         2147.096     5.050281E-8
         2149.011     3.897467E-8
         2150.929     3.037820E-8
         2152.848     2.495706E-8
         2154.768     1.949526E-8
         2156.692     1.398561E-8
         2158.615     8.445424E-9
         2160.541     5.338354E-9
         2162.469     8.586921E-9
         2164.397     1.185402E-8
          2166.33     1.515011E-8
         2168.263     1.846743E-8
         2170.196     2.116889E-8
         2172.133     1.824575E-8
          2174.07     1.530550E-8
         2176.011     1.234359E-8
         2177.953     9.362175E-9
         2179.895     6.363428E-9
          2181.84     7.728061E-9
         2183.787     9.352317E-9
         2185.735     1.098551E-8
         2187.686     1.262934E-8
         2189.637     1.428197E-8
          2191.59     2.665358E-8
         2193.546     4.155785E-8
         2195.503     5.654260E-8
         2197.462     7.160249E-8
         2199.423     8.675661E-8
         2201.385     1.036764E-7
         2203.348     1.215562E-7
         2205.315     1.397346E-7
         2207.283     1.582000E-7
         2209.252     1.769422E-7
         2211.222     1.795758E-7
         2213.196     1.721046E-7
          2215.17     1.645023E-7
         2217.147     1.567570E-7
         2219.125     1.488735E-7
         2221.104     1.310744E-7
         2223.086     1.051340E-7
         2225.071     7.876831E-8
         2227.055     5.204083E-8
         2229.042     2.486752E-8
         2231.031     1.592955E-8
         2233.021     2.431215E-8
         2235.015     3.282712E-8
         2237.008     4.145420E-8
         2239.003     5.020543E-8
         2241.002     6.154531E-8
         2242.999     7.549099E-8
         2245.002     8.965495E-8
         2247.005     1.039969E-7
         2249.009     1.185350E-7
         2251.016     1.166587E-7
         2253.024     9.843511E-8
         2255.033     7.995589E-8
         2257.046     6.120610E-8
         2259.061     4.219788E-8
         2261.075     3.079471E-8
         2263.092     2.614577E-8
         2265.112     2.143059E-8
         2267.134     1.665163E-8
         2269.156     1.181214E-8
         2271.181     9.565074E-9
         2273.207     9.202654E-9
         2275.234     8.835039E-9
         2277.266     8.461758E-9
         2279.296     8.083997E-9
          2281.33     7.740229E-9
         2283.366     7.412988E-9
         2285.402     7.081666E-9
         2287.441     6.745446E-9
         2289.483     6.404745E-9
         2291.525     9.702484E-9
          2293.57     1.428544E-8
         2295.615     1.891663E-8
         2297.663     2.361419E-8
         2299.715     2.837370E-8
         2301.765     2.666861E-8
          2303.82     2.387987E-8
         2305.876     2.105562E-8
         2307.932     1.819737E-8
         2309.992     1.530125E-8
         2312.051     1.535782E-8
         2314.116     1.542583E-8
          2316.18     1.549378E-8
         2318.246     1.556172E-8
         2320.315     1.596272E-8
         2322.385     1.823253E-8
         2324.457     2.052953E-8
         2326.531     2.285085E-8
         2328.606     2.519824E-8
         2330.685     2.547924E-8
         2332.764     2.147840E-8
         2334.845     1.743019E-8
         2336.927     1.333531E-8
         2339.012     9.193100E-9
         2341.101     1.010565E-8
         2343.188     1.563394E-8
         2345.279     2.122399E-8
         2347.372     2.687873E-8
         2349.467     3.259454E-8
         2351.562     3.313987E-8
         2353.661     3.189398E-8
         2355.759     3.063494E-8
         2357.862     2.935935E-8
         2359.966     2.806885E-8
         2362.071     2.395700E-8
         2364.179     1.975156E-8
         2366.288     1.550381E-8
         2368.398     1.121064E-8
         2370.512     1.028673E-8
         2372.628     2.010470E-8
         2374.744     3.001616E-8
         2376.863     4.003410E-8
         2378.983     5.014741E-8
         2381.105     5.739399E-8
          2383.23     6.197072E-8
         2385.357     6.659054E-8
         2387.485     7.125148E-8
         2389.615     7.595582E-8
         2391.747     9.140991E-8
         2393.881     1.093728E-7
         2396.017     1.275169E-7
         2398.154     1.458200E-7
         2400.293     1.616498E-7
         2402.435     1.608718E-7
          2404.58     1.600814E-7
         2406.724     1.592791E-7
         2408.872     1.584638E-7
         2411.022     1.465513E-7
         2413.171     1.222654E-7
         2415.326     9.770849E-8
         2417.479     7.297160E-8
         2419.637     4.797268E-8
         2421.796     3.802437E-8
         2423.957     3.109219E-8
          2426.12     2.409335E-8
         2428.284     1.703627E-8
         2430.451     1.231697E-8
         2432.619     1.675409E-8
         2434.789     2.122892E-8
         2436.962     2.574518E-8
         2439.136     3.029948E-8
         2441.312     2.913654E-8
          2443.49     2.415944E-8
          2445.67     1.913646E-8
         2447.853     1.406965E-8
         2450.036     9.575530E-9
         2452.222     4.133643E-8
         2454.409     7.336210E-8
           2456.6     1.056752E-7
         2458.792     1.382518E-7
         2460.985     1.420622E-7
          2463.18     1.101582E-7
         2465.379     7.796802E-8
         2467.579     4.551542E-8
         2469.778     1.283591E-8
         2471.983     1.245010E-8
          2474.19     1.572451E-8
         2476.396     1.901924E-8
         2478.606     2.234421E-8
         2480.817     2.363818E-8
         2483.029     2.141834E-8
         2485.247     1.917729E-8
         2487.462     1.692212E-8
         2489.682     1.464584E-8
         2491.904     3.629104E-8
         2494.125     6.208747E-8
         2496.353     8.813621E-8
         2498.579     1.143582E-7
         2500.808     1.215307E-7
          2503.04     9.473911E-8
         2505.272     6.775170E-8
         2507.509     4.052920E-8
         2509.745     1.311245E-8
         2511.985     3.048557E-8
         2514.225     5.379275E-8
         2516.468     7.728490E-8
         2518.714     1.009730E-7
         2520.962     1.167269E-7
          2523.21     1.216935E-7
         2525.462     1.266998E-7
         2527.715     1.317395E-7
         2529.971     1.368192E-7
         2532.229     1.091384E-7
         2534.486     8.083860E-8
         2536.748     5.228121E-8
          2539.01     2.347904E-8
         2541.277     3.041146E-8
         2543.545     6.525651E-8
         2545.813     1.002250E-7
         2548.084     1.353353E-7
         2550.358     1.608445E-7
         2552.635     1.341072E-7
         2554.911     1.072786E-7
         2557.191     8.031897E-8
         2559.471     5.328056E-8
         2561.755     5.153868E-8
         2564.042     5.747683E-8
         2566.329     6.343529E-8
         2568.619     6.942034E-8
         2570.908     7.452346E-8
         2573.205     7.828513E-8
           2575.5     8.205601E-8
         2577.797     8.584204E-8
         2580.097     8.882408E-8
         2582.399     7.322699E-8
         2584.704     5.755299E-8
          2587.01     4.181559E-8
         2589.318     2.602001E-8
         2591.629     2.636849E-8
          2593.94     3.352436E-8
         2596.254     4.070860E-8
         2598.573     4.793175E-8
         2600.889     5.021173E-8
          2603.21     4.450935E-8
         2605.532     3.878626E-8
         2607.856     3.303833E-8
         2610.185     2.745184E-8
         2612.512     2.409061E-8
         2614.843     2.071102E-8
         2617.177     1.731663E-8
          2619.51     1.391176E-8
         2621.849     1.281134E-8
         2624.188     1.232423E-8
         2626.528     1.183491E-8
         2628.873     1.134301E-8
         2631.217     1.190222E-8
         2633.566     1.344255E-8
         2635.916     1.498924E-8
         2638.267     1.654146E-8
          2640.62     1.747061E-8
         2642.977     1.663990E-8
         2645.334     1.580586E-8
         2647.695     1.496756E-8
         2650.057     1.475861E-8
         2652.422     4.026468E-8
         2654.788     6.586315E-8
         2657.157     9.158797E-8
         2659.526     1.173910E-7
         2661.899     1.363608E-7
         2664.275     1.536664E-7
         2666.652     1.710344E-7
         2669.031     1.884842E-7
         2671.412     1.744565E-7
         2673.796     1.386548E-7
         2676.181     1.027220E-7
          2678.57     6.661087E-8
          2680.96     5.675210E-8
          2683.35     8.625790E-8
         2685.746     1.159416E-7
          2688.14     1.456968E-7
          2690.54     1.615299E-7
         2692.941     1.287633E-7
         2695.343     9.587093E-8
         2697.748     6.281996E-8
         2700.153     3.305787E-8
         2702.563     5.321768E-8
         2704.975     7.352205E-8
         2707.387     9.396098E-8
         2709.804     1.145617E-7
         2712.222     1.241262E-7
         2714.642     1.327624E-7
         2717.063     1.414581E-7
         2719.486     1.502151E-7
         2721.915     1.299418E-7
         2724.343     1.017136E-7
         2726.772     7.327809E-8
         2729.205     4.463474E-8
          2731.64     4.678436E-8
         2734.078     6.405081E-8
         2736.517     8.143059E-8
         2738.958     9.893264E-8
         2741.402     1.078839E-7
         2743.849     1.104148E-7
         2746.296     1.129602E-7
         2748.747     1.155233E-7
         2751.198     1.187640E-7
         2753.653     1.227153E-7
         2756.111     1.266764E-7
         2758.569     1.306450E-7
         2761.031     1.205793E-7
         2763.495     9.095981E-8
         2765.958     6.130187E-8
         2768.427     3.153476E-8
         2770.898     1.822328E-8
         2773.369     3.387789E-8
         2775.844     4.958047E-8
          2778.32     6.531253E-8
         2780.799     7.423568E-8
          2783.28     6.874768E-8
         2785.764     6.324574E-8
         2788.249     5.773412E-8
         2790.736     5.139999E-8
         2793.227     4.311939E-8
          2795.72     3.481895E-8
         2798.213     2.650353E-8
         2800.709     1.998347E-8
         2803.209     1.802698E-8
         2805.709     1.606701E-8
         2808.213     1.410107E-8
         2810.718     1.355062E-8
         2813.226     1.653848E-8
         2815.736     1.953147E-8
         2818.247     2.253134E-8
         2820.764     2.388028E-8
         2823.278     2.141800E-8
         2825.798     1.894703E-8
          2828.32     1.647046E-8
         2830.843     2.329075E-8
         2833.369     4.870981E-8
         2835.898     7.418797E-8
         2838.426     9.969086E-8
         2840.959     1.062128E-7
         2843.495     8.140383E-8
         2846.031     5.655529E-8
         2848.571     3.163357E-8
         2851.112     2.412876E-8
         2853.655     3.907918E-8
         2856.202     5.407032E-8
         2858.751     6.909368E-8
         2861.301     6.922492E-8
         2863.853     5.500753E-8
         2866.407     4.075869E-8
         2868.965     2.647015E-8
         2871.526     2.317333E-8
         2874.087     2.735143E-8
         2876.652     3.154133E-8
         2879.218     3.573707E-8
         2881.788     3.593505E-8
         2884.358     3.437735E-8
         2886.931     3.281631E-8
         2889.507     3.125114E-8
         2892.084     3.066589E-8
         2894.666     3.031188E-8
         2897.248     2.995730E-8
         2899.832     2.960204E-8
         2902.421     3.456999E-8
          2905.01     3.989271E-8
         2907.601     4.520682E-8
         2910.198     4.992503E-8
          2912.79     4.744148E-8
         2915.392     4.495571E-8
         2917.992     4.247710E-8
         2920.594     4.053361E-8
         2923.203     4.038583E-8
         2925.807     4.023844E-8
          2928.42     4.009075E-8
         2931.033     3.729984E-8
         2933.646     3.048051E-8
         2936.266     2.366110E-8
         2938.885     1.686266E-8
         2941.506     3.867366E-8
         2944.131     8.163516E-8
         2946.757     1.244901E-7
         2949.387     1.672897E-7
         2952.018     2.078677E-7
         2954.653     2.477434E-7
          2957.29     2.875415E-7
         2959.926     3.272137E-7
         2962.567     3.399031E-7
          2965.21     3.517808E-7
         2967.856     3.636387E-7
         2970.505     3.551208E-7
         2973.155     2.603600E-7
         2975.808     1.657264E-7
         2978.461     7.140397E-8
         2981.121     2.128798E-8
          2983.78     3.192598E-8
         2986.441     4.254178E-8
         2989.104     5.313429E-8
         2991.772     8.838871E-8
         2994.442     1.360196E-7
         2997.113     1.835229E-7
         2999.788     2.309543E-7
         3002.464     2.364296E-7
         3005.142     2.383014E-7
         3007.826     2.401698E-7
         3010.507     2.319069E-7
         3013.194     1.802040E-7
         3015.883     1.286144E-7
         3018.573     7.717136E-8
         3021.267     5.358960E-8
          3023.96     6.132599E-8
          3026.66     6.905834E-8
          3029.36     7.676346E-8
         3032.062     6.977971E-8
          3034.77     5.824806E-8
         3037.475     4.676375E-8
         3040.186     3.589050E-8
         3042.897     3.315202E-8
         3045.612     3.041957E-8
         3048.332     2.769002E-8
         3051.051     2.778610E-8
         3053.772     3.235000E-8
         3056.497     3.690577E-8
         3059.222     4.144398E-8
         3061.954     3.964777E-8
         3064.685     3.534122E-8
         3067.418     3.104477E-8
         3070.156     2.676099E-8
         3072.896     2.256107E-8
         3075.637     1.837385E-8
          3078.38     1.419752E-8
         3081.126     1.606863E-8
         3083.877     2.662491E-8
         3086.628     3.714135E-8
         3089.381     4.762909E-8
         3092.137     5.813077E-8
         3094.895     6.861611E-8
         3097.659     7.908599E-8
         3100.422     8.530679E-8
         3103.187     6.810153E-8
         3105.955     5.082872E-8
         3108.729     3.346672E-8
         3111.501     2.977048E-8
         3114.277     3.770208E-8
         3117.056     4.566947E-8
         3119.836     5.366223E-8
         3122.621     6.723143E-8
         3125.406     8.119324E-8
         3128.195     9.521670E-8
         3130.985     9.546196E-8
         3133.778     7.032639E-8
         3136.575     4.507729E-8
         3139.373     1.974524E-8
         3142.175     5.587654E-8
         3144.979     1.099548E-7
         3147.784     1.642157E-7
         3150.592     1.970744E-7
         3153.405     1.488362E-7
         3156.218     1.004726E-7
         3159.035     5.188689E-8
         3161.851     3.297472E-8
         3164.674     2.956599E-8
         3167.497     2.614802E-8
         3170.322     2.879778E-8
         3173.152     7.882982E-8
         3175.982     1.290293E-7
         3178.816     1.794532E-7
         3181.652     1.739242E-7
          3184.49     1.280692E-7
         3187.333     8.197189E-8
         3190.175     3.828688E-8
         3193.022     3.277362E-8
          3195.87     2.724174E-8
         3198.722     2.168500E-8
         3201.577     3.608137E-8
         3204.433     6.674225E-8
         3207.291     9.752161E-8
         3210.151     1.255614E-7
         3213.018     1.023970E-7
         3215.884     7.917171E-8
         3218.752     5.585376E-8
         3221.623     5.127878E-8
         3224.499     6.120130E-8
         3227.376     7.116286E-8
         3230.255     7.903732E-8
         3233.136     6.509470E-8
          3236.02     5.109665E-8
         3238.908     3.703467E-8
         3241.799     9.165345E-8
          3244.69     1.882454E-7
         3247.584     2.852292E-7
         3250.485     3.509162E-7
         3253.384     2.581469E-7
         3256.286     1.650091E-7
         3259.192     7.144671E-8
         3262.097     4.657800E-8
          3265.01     4.824593E-8
         3267.922     4.991806E-8
         3270.837     5.005851E-8
         3273.758     4.636799E-8
         3276.675     4.267220E-8
         3279.601     3.895222E-8
         3282.526     7.976403E-8
         3285.454     1.277976E-7
         3288.388     1.760777E-7
         3291.319     2.286054E-7
         3294.257     2.864972E-7
         3297.195     3.445801E-7
         3300.137     3.965936E-7
         3303.083     3.192374E-7
         3306.029     2.416165E-7
         3308.979     1.636464E-7
         3311.931     1.310900E-7
         3314.885     1.226047E-7
         3317.844     1.140802E-7
         3320.803     1.031047E-7
         3323.767     8.555748E-8
         3326.731     6.794998E-8
           3329.7     5.026027E-8
          3332.67     1.037492E-7
         3335.643     1.654691E-7
         3338.622     2.275074E-7
         3341.599     2.589458E-7
          3344.58     2.639240E-7
         3347.563     2.689207E-7
         3350.551     2.896446E-7
         3353.541     3.801047E-7
         3356.532     4.708752E-7
         3359.528     5.620611E-7
         3362.524     5.715850E-7
         3365.525     5.657714E-7
         3368.527     5.599357E-7
         3371.532     5.487005E-7
         3374.541     5.322273E-7
         3377.551     5.156948E-7
         3380.565     4.763208E-7
         3383.582     3.378983E-7
         3386.598     1.990822E-7
         3389.623     5.944327E-8
         3392.646     3.598614E-8
         3395.672     2.909123E-8
         3398.705     2.215972E-8
         3401.732     5.733496E-8
          3404.77     1.243872E-7
         3407.807     1.916315E-7
         3410.847     2.679276E-7
         3413.893     3.674458E-7
         3416.938     4.672493E-7
         3419.985     5.674667E-7
         3423.038     4.815647E-7
         3426.089     3.945103E-7
         3429.148     3.069357E-7
         3432.207     2.600967E-7
         3435.268     2.289193E-7
         3438.334     1.975921E-7
         3441.401     1.968699E-7
         3444.473     2.327785E-7
         3447.545     2.688091E-7
         3450.622     3.154604E-7
         3453.701     4.036817E-7
         3456.782     4.922059E-7
         3459.865     5.811038E-7
         3462.951     5.124487E-7
         3466.042     4.362198E-7
         3469.135     3.596707E-7
         3472.229     3.717294E-7
         3475.326     4.184179E-7
         3478.426     4.653008E-7
         3481.532     5.174600E-7
         3484.638     5.749484E-7
         3487.746     6.326727E-7
         3490.859     7.092510E-7
         3493.972     8.349608E-7
         3497.091     9.612689E-7
          3500.21     1.077086E-6
         3503.334     1.041081E-6
          3506.46     1.004915E-6
         3509.586     9.686337E-7
          3512.72     8.538769E-7
         3515.852     7.269074E-7
         3518.989     5.992412E-7
          3522.13     6.564812E-7
         3525.271     8.021257E-7
         3528.418     9.484835E-7
         3531.563     1.024673E-6
         3534.717     1.029518E-6
          3537.87     1.034373E-6
         3541.025     1.001026E-6
         3544.188     8.877550E-7
         3547.349     7.741295E-7
         3550.513     6.736051E-7
         3553.679     6.431828E-7
         3556.849     6.126230E-7
         3560.026     5.818363E-7
         3563.201     5.447277E-7
         3566.379     5.074538E-7
         3569.562     4.699854E-7
         3572.746     5.730909E-7
         3575.935     6.992375E-7
         3579.124     8.258573E-7
         3582.316     8.418507E-7
         3585.513     8.157367E-7
         3588.714     7.894998E-7
         3591.915     9.023266E-7
         3595.118     1.109400E-6
         3598.325     1.317415E-6
         3601.538     1.415071E-6
         3604.751     1.391420E-6
         3607.966     1.367657E-6
         3611.184     1.340414E-6
         3614.409     1.307199E-6
         3617.633     1.273871E-6
         3620.859     1.229040E-6
         3624.089     1.152646E-6
         3627.322     1.075904E-6
         3630.561     1.011051E-6
         3633.799     1.004988E-6
          3637.04     9.988920E-7
         3640.286     9.973678E-7
         3643.533     1.043593E-6
         3646.785     1.090048E-6
         3650.038     1.135513E-6
         3653.295     1.081064E-6
         3656.556     1.026357E-6
         3659.815     9.714693E-7
         3663.082     9.952258E-7
         3666.353     1.023852E-6
         3669.621     1.052553E-6
         3672.896     1.057310E-6
         3676.172     1.058922E-6
         3679.451     1.060535E-6
         3682.737     1.073949E-6
         3686.022     1.089773E-6
         3689.309     1.105663E-6
           3692.6     1.191589E-6
         3695.896     1.296593E-6
         3699.194     1.402079E-6
         3702.494     1.442780E-6
         3705.798     1.462545E-6
         3709.101     1.482369E-6
         3712.412     1.546782E-6
         3715.725     1.628109E-6
         3719.039     1.709747E-6
         3722.358     1.693568E-6
         3725.678     1.637217E-6
         3729.004     1.580563E-6
          3732.33     1.545883E-6
         3735.659     1.520556E-6
         3738.995     1.495074E-6
          3742.33     1.525983E-6
         3745.668     1.581462E-6
         3749.009     1.637185E-6
         3752.354     1.652722E-6
         3755.703     1.651233E-6
         3759.053     1.649729E-6
         3762.408     1.649586E-6
         3765.764     1.649976E-6
         3769.125     1.650361E-6
         3772.487     1.673934E-6
         3775.852     1.705790E-6
         3779.222     1.737807E-6
         3782.594     1.719656E-6
         3785.968     1.686302E-6
         3789.345     1.652785E-6
         3792.725     1.725611E-6
         3796.112     1.824539E-6
         3799.498     1.923793E-6
         3802.887     1.892572E-6
         3806.279     1.838376E-6
         3809.676     1.783884E-6
         3813.076     1.739557E-6
         3816.477     1.696142E-6
         3819.881     1.652523E-6
          3823.29     1.678833E-6
           3826.7     1.707780E-6
         3830.116     1.741094E-6
         3833.532     1.895260E-6
         3836.951     2.050111E-6
         3840.378     2.187423E-6
         3843.803     2.176215E-6
         3847.232     2.164945E-6
         3850.663     2.148401E-6
         3854.102     2.109901E-6
          3857.54     2.071262E-6
          3860.98     2.056688E-6
         3864.426     2.103089E-6
         3867.875     2.149690E-6
         3871.325     2.188515E-6
         3874.778     2.214726E-6
         3878.234     2.241042E-6
         3881.695     2.271539E-6
         3885.157     2.306377E-6
         3888.625     2.341384E-6
         3892.094     2.360295E-6
         3895.565     2.368599E-6
         3899.044     2.376940E-6
         3902.521     2.347714E-6
         3906.002     2.304055E-6
         3909.489     2.260168E-6
         3912.975     2.310258E-6
         3916.468     2.376834E-6
         3919.961     2.443648E-6
         3923.457     2.528457E-6
         3926.961     2.613936E-6
         3930.462     2.683581E-6
         3933.969     2.647641E-6
         3937.478     2.611553E-6
         3940.992     2.584446E-6
          3944.51     2.580580E-6
         3948.028     2.576688E-6
          3951.55     2.584769E-6
         3955.074     2.608186E-6
         3958.606     2.631723E-6
         3962.137     2.648700E-6
         3965.671     2.661406E-6
          3969.21     2.674164E-6
          3972.75     2.743663E-6
         3976.296     2.829827E-6
         3979.843     2.916295E-6
         3983.395     2.878567E-6
          3986.95     2.834881E-6
         3990.504     2.794427E-6
         3994.065     2.774241E-6
          3997.63     2.753956E-6
         4001.196     2.747985E-6
         4004.767     2.770555E-6
         4008.339     2.793123E-6
         4011.914     2.803343E-6
         4015.494     2.802832E-6
         4019.078     2.802318E-6
         4022.663     2.785719E-6
         4026.251     2.763537E-6
         4029.844     2.741329E-6
         4033.441     2.775768E-6
         4037.039     2.812764E-6
         4040.639     2.846143E-6
         4044.243     2.862705E-6
         4047.855     2.879293E-6
         4051.465     2.897835E-6
         4055.079     2.919270E-6
         4058.698     2.940723E-6
         4062.316     2.938783E-6
         4065.944     2.923668E-6
          4069.57     2.908563E-6
           4073.2     2.922061E-6
         4076.838     2.939426E-6
         4080.472     2.951313E-6
         4084.114     2.926631E-6
         4087.756     2.901954E-6
         4091.405     2.893357E-6
         4095.056     2.910495E-6
         4098.708     2.927624E-6
         4102.367     2.986713E-6
         4106.026     3.068664E-6
         4109.688     3.150622E-6
         4113.356     3.139277E-6
         4117.025     3.119254E-6
         4120.699     3.101946E-6
         4124.375     3.096271E-6
         4128.056     3.090588E-6
         4131.738     3.101903E-6
         4135.423     3.132243E-6
         4139.116     3.162625E-6
         4142.808     3.173901E-6
         4146.503     3.179170E-6
         4150.201     3.182022E-6
         4153.903     3.142845E-6
         4157.613     3.103619E-6
         4161.321     3.090824E-6
         4165.033     3.125724E-6
         4168.748     3.160625E-6
         4172.466     3.161550E-6
         4176.192     3.145187E-6
         4179.917     3.128839E-6
         4183.645     3.182133E-6
         4187.379     3.237048E-6
         4191.116     3.271874E-6
         4194.854     3.259513E-6
         4198.596     3.247150E-6
         4202.343     3.262561E-6
         4206.094     3.294693E-6
         4209.845     3.326885E-6
         4213.603     3.332698E-6
         4217.358     3.337376E-6
         4221.123     3.336415E-6
          4224.89     3.322118E-6
         4228.658     3.307786E-6
         4232.432     3.317481E-6
         4236.208     3.340490E-6
         4239.988     3.363568E-6
          4243.77     3.369150E-6
         4247.555     3.374689E-6
         4251.348     3.362396E-6
          4255.14     3.317696E-6
         4258.936     3.272876E-6
         4262.734     3.208389E-6
         4266.537     3.136107E-6
         4270.347     3.063307E-6
         4274.155     2.987951E-6
         4277.968     2.912387E-6
         4281.786     2.816050E-6
         4285.605     2.696115E-6
          4289.43     2.575809E-6
         4293.256     2.464531E-6
         4297.085     2.354608E-6
         4300.922     2.240746E-6
         4304.759     2.115601E-6
         4308.598     1.990156E-6
         4312.441     2.035540E-6
          4316.29     2.179558E-6
         4320.142     2.315154E-6
         4323.996     2.221455E-6
         4327.854     2.127470E-6
         4331.715     2.050744E-6
         4335.581     1.995656E-6
         4339.448     1.940470E-6
         4343.318     1.973918E-6
         4347.195     2.022279E-6
         4351.072     2.040045E-6
         4354.956     1.977413E-6
          4358.84     1.914665E-6
         4362.728     1.827457E-6
         4366.624     1.729542E-6
         4370.519     1.704353E-6
         4374.417     2.154119E-6
         4378.318     2.604925E-6
         4382.229     3.082651E-6
         4386.137     3.579967E-6
         4390.049     4.075642E-6
         4393.967     4.349049E-6
         4397.889     4.623146E-6
         4401.812     4.887491E-6
         4405.738     5.140595E-6
         4409.667     5.394307E-6
         4413.603     5.744974E-6
         4417.542     6.105372E-6
         4421.482     6.324240E-6
         4425.426     6.307446E-6
         4429.373     6.290603E-6
         4433.329     6.420021E-6
         4437.283     6.577171E-6
         4441.241     6.600868E-6
         4445.205     6.330957E-6
         4449.169     6.060560E-6
          4453.14     5.697049E-6
         4457.112     5.308411E-6
         4461.088     4.950046E-6
         4465.069     4.673605E-6
         4469.052     4.396677E-6
         4473.041     4.186625E-6
          4477.03     3.997353E-6
         4481.028     3.857408E-6
         4485.022     3.861789E-6
         4489.025     3.866183E-6
         4493.032     3.865148E-6
         4497.039     3.862358E-6
         4501.053     3.871906E-6
         4505.067     3.916349E-6
         4509.086     3.961068E-6
         4513.107     3.951887E-6
         4517.136     3.926481E-6
         4521.167     3.929200E-6
           4525.2     4.001968E-6
         4529.238     4.075292E-6
         4533.281     4.077418E-6
         4537.324     4.062726E-6
         4541.371     4.058471E-6
         4545.422     4.075003E-6
         4549.479     4.091572E-6
         4553.539     4.118575E-6
           4557.6     4.147219E-6
         4561.668     4.165594E-6
         4565.734     4.168945E-6
         4569.809     4.172217E-6
         4573.887     4.214856E-6
         4577.967     4.259669E-6
         4582.053     4.264282E-6
         4586.142     4.228548E-6
         4590.233     4.195591E-6
         4594.327     4.214965E-6
         4598.425     4.234386E-6
         4602.529     4.238546E-6
         4606.637     4.233039E-6
         4610.746     4.247529E-6
          4614.86     4.353385E-6
         4618.979     4.460016E-6
         4623.097     4.460712E-6
         4627.223     4.425987E-6
          4631.35     4.404576E-6
         4635.483     4.411175E-6
         4639.621     4.417715E-6
         4643.759     4.524496E-6
           4647.9     4.642188E-6
         4652.046     4.685651E-6
         4656.198     4.651956E-6
         4660.354     4.618382E-6
         4664.511     4.589855E-6
         4668.673     4.560980E-6
          4672.84     4.563861E-6
         4677.005     4.581693E-6
          4681.18     4.600957E-6
         4685.355     4.623753E-6
         4689.537     4.646635E-6
         4693.722     4.673097E-6
         4697.909     4.700079E-6
         4702.102     4.740923E-6
         4706.293     4.795641E-6
         4710.493     4.857288E-6
         4714.697     4.968733E-6
         4718.902     5.080855E-6
         4723.114     5.321411E-6
          4727.33     5.608854E-6
         4731.543     5.979469E-6
         4735.766     6.494921E-6
          4739.99     7.013901E-6
         4744.221     8.018274E-6
         4748.455     9.031204E-6
          4752.69     1.086856E-5
         4756.932     1.319270E-5
         4761.172     1.606710E-5
         4765.421     2.037743E-5
         4769.674     2.471966E-5
         4773.929     3.429367E-5
         4778.189     4.437839E-5
         4782.454     5.874604E-5
         4786.719     7.632926E-5
         4790.989     9.887422E-5
         4795.262     1.376842E-4
         4799.542     1.768050E-4
         4803.826     2.349995E-4
          4808.11     2.958408E-4
         4812.401     3.900078E-4
         4816.696     5.108176E-4
         4820.993     6.440978E-4
         4825.292     8.172831E-4
         4829.597     9.917532E-4
         4833.907     0.001259033
         4838.221     0.001537772
         4842.537     0.001909839
         4846.855     0.002348979
         4851.179     0.002845209
         4855.508     0.003489666
         4859.842     0.004138739
         4864.177     0.004878156
         4868.518      0.00562655
         4872.863     0.006582875
         4877.209     0.007650747
          4881.56     0.008741309
         4885.914       0.0098664
         4890.277      0.01102304
         4894.639      0.01251562
         4899.004      0.01401866
         4903.376      0.01550692
         4907.748      0.01699615
          4912.13      0.01865584
         4916.512      0.02049188
         4920.897      0.02230995
         4925.289      0.02402185
         4929.685      0.02574562
         4934.082      0.02773238
         4938.482      0.02975222
         4942.887      0.03162686
         4947.301      0.03343249
         4951.714      0.03532773
         4956.131      0.03736188
         4960.554      0.03937409
         4964.976      0.04114198
          4969.41       0.0429248
         4973.842      0.04484671
         4978.278      0.04680097
         4982.724      0.04855899
         4987.168      0.05019214
         4991.617      0.05187434
         4996.069      0.05363517
         5000.528      0.05537545
         5004.991      0.05688127
         5009.455      0.05839692
         5013.923      0.05997825
         5018.398      0.06157926
         5022.874      0.06301802
         5027.357      0.06437093
         5031.841      0.06574228
         5036.329      0.06713761
         5040.827      0.06849922
         5045.323      0.06966865
         5049.823      0.07084576
         5054.327      0.07206691
         5058.838      0.07329822
         5063.353      0.07439505
         5067.869      0.07544842
          5072.39      0.07650601
         5076.919      0.07756919
         5081.448      0.07858306
          5085.98      0.07948647
         5090.516       0.0803967
          5095.06      0.08132581
         5099.607      0.08226025
         5104.155      0.08307038
         5108.708       0.0838727
         5113.265      0.08468586
         5117.828      0.08550653
         5122.396      0.08627085
         5126.965      0.08698324
         5131.538      0.08770188
          5136.12      0.08843043
         5140.701       0.0891482
         5145.287      0.08979437
         5149.876       0.0904435
         5154.472      0.09108671
         5159.072      0.09173257
         5163.674      0.09231945
         5168.283      0.09289361
         5172.895      0.09347616
         5177.506      0.09406412
         5182.127      0.09462074
         5186.749      0.09513872
         5191.378      0.09566082
         5196.012      0.09618916
         5200.646      0.09671273
         5205.285      0.09719843
         5209.928      0.09768578
         5214.577      0.09817129
         5219.231      0.09865841
         5223.887      0.09912028
         5228.549       0.0995786
         5233.215       0.1000277
          5237.88       0.1004727
         5242.555       0.1009082
         5247.231       0.1013353
         5251.914       0.1017537
         5256.601       0.1021585
          5261.29       0.1025518
         5265.985       0.1029134
          5270.68       0.1032801
         5275.383       0.1036764
         5280.092       0.1040726
         5284.801       0.1044223
         5289.518       0.1047728
         5294.239       0.1051321
         5298.958       0.1054925
         5303.687       0.1058328
         5308.418       0.1061673
         5313.155       0.1064925
         5317.897       0.1068131
         5322.641       0.1071259
         5327.391       0.1074328
          5332.14       0.1077353
         5336.899        0.108033
         5341.662        0.108329
         5346.426       0.1086212
         5351.198       0.1089048
         5355.974       0.1091617
         5360.751        0.109422
         5365.532       0.1097014
         5370.318       0.1099788
         5375.111       0.1102281
         5379.908       0.1104771
         5384.707       0.1107216
         5389.513        0.110966
         5394.323       0.1111824
         5399.131       0.1113949
          5403.95       0.1116218
          5408.77       0.1118515
         5413.597       0.1120411
         5418.429       0.1122165
         5423.262       0.1124223
         5428.099       0.1126427
          5432.94       0.1128334
         5437.792       0.1130048
         5442.643       0.1131753
         5447.497        0.113345
         5452.359       0.1135044
         5457.225       0.1136526
         5462.092          0.1138
         5466.964       0.1139467
          5471.84       0.1140871
         5476.724       0.1142178
         5481.612       0.1143497
         5486.501       0.1144848
         5491.398        0.114603
         5496.293       0.1146793
         5501.198        0.114755
         5506.108       0.1148313
         5511.019       0.1149025
         5515.938       0.1149572
          5520.86       0.1150117
         5525.785       0.1150703
         5530.713       0.1151199
         5535.646       0.1151222
         5540.587       0.1151266
         5545.532       0.1151569
         5550.478       0.1151821
         5555.432       0.1151716
         5560.387       0.1151599
         5565.347       0.1151511
         5570.313       0.1151369
         5575.282       0.1150648
         5580.258       0.1149938
         5585.238       0.1149766
          5590.22       0.1149554
         5595.206       0.1148808
         5600.197       0.1148001
         5605.198       0.1146124
         5610.197       0.1144213
         5615.201         0.11417
         5620.213       0.1139188
         5625.226       0.1137042
         5630.246       0.1134862
         5635.268       0.1132275
         5640.294       0.1129687
         5645.328       0.1127279
         5650.367       0.1124828
         5655.406       0.1121978
         5660.451       0.1119112
         5665.502        0.111623
         5670.559       0.1113299
         5675.617        0.111009
         5680.679       0.1106988
         5685.752       0.1104663
         5690.823       0.1102178
         5695.899       0.1098907
         5700.979        0.109562
         5706.064       0.1092318
          5711.16       0.1089012
         5716.254       0.1085749
         5721.353       0.1082318
         5726.456       0.1078448
         5731.567       0.1074625
         5736.682       0.1070933
         5741.799       0.1066942
          5746.92       0.1062406
         5752.053       0.1058256
         5757.183       0.1054714
         5762.318       0.1050695
         5767.458       0.1046098
         5772.602       0.1041767
         5777.757       0.1037694
         5782.911       0.1033119
         5788.068       0.1028147
         5793.237       0.1023646
         5798.401       0.1019432
         5803.577       0.1014385
         5808.753       0.1008958
         5813.937       0.1004284
         5819.126      0.09998381
         5824.316       0.0994456
         5829.511      0.09888658
         5834.711      0.09841217
         5839.918      0.09794457
          5845.13      0.09735773
         5850.344      0.09677292
         5855.562      0.09626896
         5860.792      0.09574991
         5866.016      0.09516016
         5871.251      0.09458368
         5876.488      0.09405737
         5881.732      0.09349833
         5886.982      0.09287534
         5892.232      0.09228627
         5897.491      0.09174315
         5902.749      0.09115412
         5908.017      0.09052147
          5913.29      0.08993066
         5918.563      0.08936474
         5923.846      0.08874408
         5929.133      0.08810153
         5934.421      0.08750368
         5939.714      0.08691274
         5945.012      0.08623037
         5950.318      0.08554693
         5955.629      0.08497193
         5960.941      0.08437712
         5966.258      0.08369643
         5971.579       0.0830363
         5976.909      0.08242808
         5982.243       0.0817745
         5987.579      0.08105952
         5992.923      0.08039375
         5998.271      0.07976901
         6003.622      0.07903562
         6008.976      0.07825021
         6014.336      0.07752316
         6019.704      0.07680891
         6025.076      0.07600999
          6030.45      0.07521249
         6035.832      0.07448741
         6041.219      0.07373393
         6046.604      0.07288662
         6052.001      0.07209177
         6057.399      0.07138893
         6062.805      0.07062514
         6068.216      0.06980518
         6073.628      0.06906173
         6079.046      0.06835528
         6084.468      0.06755399
         6089.898      0.06673103
         6095.333      0.06602731
          6100.77      0.06530809
         6106.215      0.06448214
         6111.665       0.0636927
         6117.112      0.06298856
         6122.572      0.06223629
         6128.033      0.06143147
         6133.502      0.06070412
         6138.976      0.06002031
         6144.452      0.05922976
         6149.936      0.05841327
         6155.417      0.05772618
         6160.911      0.05702252
          6166.41      0.05623518
          6171.91      0.05548472
         6177.418      0.05480331
         6182.932       0.0540725
         6188.443      0.05329899
         6193.966      0.05258923
         6199.491      0.05190495
         6205.024      0.05113614
         6210.562      0.05036982
         6216.101      0.04970724
         6221.649      0.04901643
         6227.195      0.04826165
         6232.756      0.04756232
         6238.315      0.04692182
         6243.879      0.04621676
         6249.452      0.04548275
         6255.029      0.04483824
         6260.608      0.04419304
         6266.193      0.04346385
         6271.782      0.04277179
         6277.379      0.04215949
         6282.982      0.04150118
         6288.586      0.04080272
         6294.198      0.04017273
         6299.809      0.03956625
         6305.435      0.03889239
         6311.059      0.03823219
         6316.688      0.03763976
         6322.326      0.03702174
         6327.968      0.03636807
         6333.612      0.03577411
         6339.262      0.03521325
         6344.916      0.03456968
         6350.579      0.03392409
         6356.247      0.03337772
         6361.916      0.03280497
         6367.594      0.03217975
         6373.277      0.03161335
         6378.961      0.03109038
         6384.651       0.0304967
         6390.346      0.02989192
         6396.049       0.0293666
         6401.757      0.02882206
         6407.467      0.02823527
         6413.183        0.027696
         6418.906      0.02719424
         6424.631      0.02665003
         6430.365      0.02609996
         6436.104      0.02562241
         6441.845      0.02513073
         6447.594      0.02460857
         6453.345      0.02412166
         6459.101      0.02365984
         6464.866       0.0231526
         6470.632       0.0226466
         6476.407      0.02221744
         6482.184      0.02177181
         6487.969      0.02129843
         6493.756      0.02085851
         6499.548      0.02043645
         6505.349      0.01997181
         6511.154      0.01950619
         6516.962      0.01904851
         6522.778      0.01860799
         6528.596      0.01818668
         6534.419      0.01776602
         6540.251      0.01734592
         6546.088      0.01692676
         6551.927      0.01651725
         6557.771       0.0161259
         6563.624      0.01572981
         6569.478      0.01533152
         6575.341      0.01496338
         6581.206      0.01459604
          6587.08      0.01421716
         6592.955      0.01385922
         6598.839      0.01352151
         6604.729      0.01316641
         6610.616      0.01281242
         6616.516      0.01249564
         6622.421      0.01217829
         6628.328      0.01186001
         6634.244      0.01155184
         6640.165      0.01124836
         6646.087      0.01095102
         6652.015      0.01065948
         6657.948       0.0103786
         6663.891      0.01009837
         6669.838     0.009818915
         6675.787     0.009556756
         6681.745     0.009294069
         6687.701     0.009028764
          6693.67     0.008777325
         6699.644     0.008535005
          6705.62     0.008291845
         6711.604      0.00805228
         6717.594     0.007822019
         6723.586     0.007596569
         6729.583     0.007374429
         6735.585     0.007163763
         6741.597     0.006955697
         6747.613     0.006751915
         6753.632     0.006550832
          6759.66     0.006351497
         6765.692     0.006160558
         6771.723     0.005973266
         6777.767     0.005792324
         6783.813     0.005617219
         6789.867      0.00544555
         6795.927     0.005275996
         6801.988     0.005110345
         6808.055     0.004951894
         6814.127     0.004796154
         6820.209     0.004642047
         6826.296     0.004494819
         6832.385      0.00435004
         6838.482     0.004208624
         6844.586     0.004123739
         6850.687     0.004057726
         6856.801     0.003991808
         6862.917     0.003926076
         6869.042     0.003860445
         6875.173     0.003795055
         6881.305       0.0037299
         6887.446     0.003664879
         6893.586     0.003600113
         6899.738     0.003535448
         6905.896     0.003470905
         6912.056     0.003406596
         6918.225     0.003342471
         6924.399     0.003278523
         6930.572     0.003214843
         6936.757     0.003151325
         6942.944      0.00307169
         6949.141     0.002974274
         6955.343     0.002868725
         6961.546     0.002766474
          6967.76     0.002677301
         6973.971     0.002583844
         6980.195     0.002488399
         6986.424      0.00240814
         6992.656     0.002325063
         6998.897     0.002238003
         7005.143     0.002161495
         7011.392     0.002085948
         7017.645     0.002005125
         7023.904     0.001932699
         7030.173      0.00186524
         7036.448      0.00179271
         7042.724     0.001725735
         7049.009     0.001665763
         7055.292     0.001602179
         7061.589     0.001540667
         7067.892     0.001487126
         7074.196     0.001430726
          7080.51     0.001373679
         7086.829     0.001324844
          7093.15     0.001274845
         7099.477     0.001223646
         7105.809     0.001180411
         7112.151     0.001136496
         7118.498     0.001089767
         7124.848     0.001049259
         7131.207     0.001010246
         7137.571     9.691880E-4
         7143.933     9.323109E-4
         7150.309     8.978755E-4
         7156.687     8.613144E-4
         7163.074     8.276290E-4
         7169.467     7.970411E-4
         7175.862     7.644679E-4
         7182.262     7.337336E-4
         7188.668     7.065693E-4
         7195.084     6.777345E-4
         7201.506     6.496857E-4
         7207.929     6.254263E-4
         7214.362     6.003506E-4
         7220.801     5.754118E-4
         7227.237     5.537803E-4
         7233.688     5.314950E-4
         7240.144     5.088440E-4
         7246.601     4.895290E-4
         7253.069     4.698722E-4
         7259.538     4.498580E-4
         7266.017     4.330197E-4
         7272.498     4.159454E-4
         7278.989     3.980457E-4
         7285.481     3.827798E-4
         7291.979     3.676341E-4
         7298.487     3.515921E-4
         7305.001     3.378153E-4
         7311.517     3.245212E-4
         7318.038     3.104628E-4
         7324.569     2.980837E-4
         7331.103     2.863208E-4
         7337.646     2.738948E-4
          7344.19     2.627367E-4
         7350.745     2.522579E-4
         7357.301     2.415200E-4
         7363.867     2.318021E-4
         7370.436     2.227614E-4
         7377.014     2.130251E-4
         7383.593     2.041999E-4
         7390.183     1.961111E-4
         7396.775     1.876554E-4
         7403.372     1.798937E-4
         7409.979     1.727872E-4
         7416.589     1.652272E-4
         7423.208     1.582449E-4
         7429.829     1.518800E-4
          7436.46     1.452060E-4
         7443.097     1.391410E-4
         7449.736     1.337753E-4
         7456.381     1.280398E-4
         7463.036     1.226606E-4
         7469.692     1.177248E-4
         7476.359     1.125479E-4
         7483.027     1.078246E-4
         7489.702     1.036490E-4
         7496.386     9.908891E-5
         7503.077     9.490979E-5
         7509.769     9.119527E-5
         7516.471     8.718159E-5
         7523.175     8.353230E-5
          7529.89     8.029053E-5
         7536.606     7.682130E-5
         7543.328     7.368860E-5
         7550.061     7.089462E-5
         7556.794     6.767154E-5
         7563.539     6.482755E-5
          7570.29     6.231418E-5
         7577.042     5.950938E-5
           7583.8     5.704735E-5
         7590.568     5.484448E-5
         7597.339     5.257535E-5
         7604.119     5.044482E-5
         7610.906     4.839721E-5
         7617.694     4.629304E-5
         7624.489     4.442917E-5
          7631.29     4.265148E-5
           7638.1     4.070748E-5
         7644.917     3.914921E-5
         7651.736     3.768679E-5
         7658.565     3.606196E-5
         7665.396     3.464058E-5
         7672.233     3.324229E-5
         7679.081     3.177669E-5
          7685.93     3.053089E-5
          7692.79     2.926093E-5
         7699.655     2.790676E-5
         7706.523     2.691760E-5
         7713.401     2.587011E-5
         7720.276     2.475484E-5
         7727.167     2.385068E-5
         7734.063     2.289548E-5
         7740.961     2.192032E-5
          7747.87     2.103097E-5
         7754.785     2.019407E-5
         7761.697     1.937932E-5
         7768.625     1.855381E-5
         7775.554     1.779807E-5
         7782.494     1.711101E-5
         7789.439     1.651498E-5
         7796.387     1.585443E-5
         7803.345     1.523558E-5
         7810.301     1.466733E-5
         7817.271     1.407214E-5
         7824.249     1.355469E-5
         7831.227     1.305381E-5
         7838.216     1.239491E-5
         7845.212     1.190701E-5
         7852.209     1.149062E-5
         7859.213     1.110132E-5
         7866.223     1.068742E-5
         7873.244     1.026112E-5
         7880.271     9.826847E-6
         7887.299     9.458474E-6
         7894.338     9.084604E-6
         7901.375     8.727752E-6
         7908.427     8.450745E-6
         7915.485     8.123801E-6
         7922.545     7.765698E-6
         7929.616     7.376687E-6
         7936.693     7.170332E-6
         7943.772     6.937523E-6
         7950.858     6.662392E-6
          7957.95     6.313670E-6
         7965.052     6.103932E-6
         7972.161     5.959154E-6
         7979.271     5.834149E-6
         7986.393     5.595996E-6
         7993.521     5.872145E-6
         8000.646     6.541796E-6
         8007.786     5.796046E-6
         8014.929     5.654125E-6
         8022.082     5.413558E-6
         8029.242     4.285521E-6
         8036.403     4.320507E-6
         8043.576     4.429941E-6
         8050.746     4.519706E-6
         8057.931     4.975239E-6
         8065.123     4.386612E-6
         8072.316     3.701074E-6
         8079.521     3.682704E-6
         8086.731     4.002191E-6
          8093.94     3.904802E-6
         8101.164     3.505573E-6
         8108.389     3.416027E-6
         8115.626     3.299301E-6
         8122.869     3.129471E-6
         8130.114     2.896371E-6
          8137.37     2.983507E-6
         8144.628     2.861814E-6
         8151.893     2.713779E-6
         8159.168     2.821660E-6
         8166.446     2.739414E-6
         8173.734     2.872009E-6
         8181.029     3.167115E-6
         8188.326     3.084157E-6
          8195.63     2.790100E-6
         8202.939     2.654996E-6
         8210.261     2.806169E-6
         8217.588     1.912128E-6
         8224.918     2.206224E-6
         8232.259     2.748862E-6
         8239.602     2.560396E-6
          8246.95     2.164835E-6
         8254.311     1.725937E-6
         8261.673     1.473613E-6
         8269.047     1.923046E-6
         8276.427     1.903520E-6
         8283.809     1.940004E-6
         8291.197     2.046239E-6
         8298.597     1.915481E-6
         8305.999     1.470253E-6
         8313.412     1.143711E-6
         8320.827     1.073411E-6
         8328.253     1.271012E-6
         8335.687     1.696709E-6
         8343.121     1.805373E-6
         8350.563     1.420306E-6
         8358.011     1.441629E-6
         8365.471     1.493308E-6
         8372.937     1.270772E-6
         8380.409     6.603242E-7
         8387.879     9.173553E-7
         8395.365     1.061497E-6
         8402.854     1.189661E-6
         8410.353     1.361283E-6
         8417.859     1.470219E-6
         8425.367     1.167763E-6
         8432.887     9.092546E-7
         8440.408     9.886322E-7
         8447.937     1.170594E-6
         8455.477     1.207185E-6
         8463.019     1.106636E-6
         8470.571     9.136073E-7
         8478.127     1.095666E-6
         8485.693     8.244112E-7
         8493.262     6.626959E-7
         8500.842     8.327070E-7
         8508.425     9.435127E-7
         8516.019     1.112744E-6
         8523.614     9.443045E-7
         8531.221     5.276226E-7
          8538.83     8.333994E-7
         8546.446     8.538009E-7
         8554.074     7.764102E-7
         8561.704     6.728160E-7
         8569.345     6.168377E-7
         8576.993     8.531177E-7
         8584.644     6.872121E-7
         8592.301     3.948232E-7
         8599.969     4.499385E-7
          8607.64     8.323784E-7
         8615.321     1.294625E-6
         8623.006     1.404139E-6
         8630.702     9.343955E-7
         8638.405     6.636546E-7
         8646.105     5.598313E-7
         8653.821     4.998061E-7
          8661.54     4.569550E-7
         8669.271     4.802852E-7
         8677.008     3.178398E-7
         8684.747     4.131871E-7
         8692.493     6.169443E-7
         8700.251     6.849892E-7
         8708.012     7.667698E-7
         8715.783     7.671227E-7
         8723.563     9.980369E-7
         8731.343     1.382372E-6
         8739.136     1.051447E-6
         8746.926     6.210263E-7
         8754.732     4.424380E-7
         8762.546     4.017717E-7
         8770.361     3.008456E-7
         8778.188     3.482097E-7
         8786.019     4.127502E-7
         8793.859     4.170946E-7
         8801.703     4.139272E-7
         8809.554     6.235691E-7
         8817.416     7.876483E-7
         8825.286     5.255052E-7
         8833.157     4.923521E-7
         8841.041     9.560316E-7
         8848.922     4.606914E-7
         8856.819     3.153102E-7
         8864.724     4.321543E-7
         8872.631     5.562429E-7
          8880.55     4.418696E-7
         8888.476     6.244132E-7
         8896.403     4.541409E-7
         8904.338     3.084549E-7
          8912.28     2.585635E-7
         8920.234     2.385351E-7
         8928.195     6.296211E-7
         8936.159     6.638930E-7
         8944.135     6.383163E-7
         8952.117     5.397875E-7
         8960.097     1.389365E-7
         8968.094     4.155353E-7
         8976.093     4.301853E-7
         8984.104     3.148500E-7
         8992.122     2.928195E-7
         9000.143     6.403306E-7
         9008.175     2.348390E-7
         9016.205     3.818862E-7
         9024.252     6.891045E-7
         9032.306     8.782461E-7
         9040.362     7.915968E-7
         9048.431     9.835644E-7
         9056.506     5.084348E-7
         9064.579     3.919312E-7
         9072.669     5.965898E-7
         9080.761     6.668723E-7
         9088.865     8.012881E-7
         9096.978     4.574368E-7
         9105.092     2.790785E-7
         9113.218     1.954474E-7
         9121.341     7.990607E-8
         9129.481     1.635306E-7
          9137.63     1.884552E-7
          9145.78     2.737475E-7
         9153.942     2.853958E-7
         9162.112     2.773630E-7
         9170.284     5.019303E-7
         9178.464     4.220020E-7
         9186.655     5.283036E-7
         9194.849     4.123735E-7
         9203.056     2.074895E-7
         9211.264     2.158827E-7
         9219.485     5.528602E-7
         9227.708     5.296173E-7
         9235.938     3.108865E-7
         9244.182     2.234370E-7
         9252.427     2.857522E-7
         9260.685     2.736134E-7
         9268.949     4.585673E-7
         9277.217     5.705816E-7
         9285.492     4.508534E-7
         9293.779     4.126890E-7
         9302.068     4.508865E-7
          9310.37     8.066351E-8
         9318.675     4.707331E-7
         9326.991     3.802544E-7
         9335.315     3.853042E-7
         9343.637     3.720081E-7
         9351.977     3.068250E-7
         9360.317     5.413623E-7
         9368.672     1.309744E-7
         9377.033     1.852663E-7
         9385.396     2.705618E-7
         9393.768     3.117630E-7
         9402.152     2.971600E-7
         9410.538     1.880745E-7
         9418.937     3.090790E-7
         9427.338     2.814691E-7
         9435.752     2.072910E-7
         9444.173     2.049136E-7
         9452.592     3.250719E-7
         9461.028     5.093945E-7
         9469.472     5.322779E-7
         9477.918     2.523667E-7
         9486.377     1.772295E-7
         9494.838     2.006706E-7
         9503.313     2.403401E-7
         9511.788     2.722010E-7
         9520.272     2.908471E-7
          9528.77     2.256735E-7
         9537.269     3.403586E-7
          9545.78     2.700836E-7
           9554.3     1.750395E-7
         9562.821     1.475907E-7
         9571.351     1.482604E-7
         9579.894     3.466924E-7
         9588.438     3.454275E-7
         9596.995     4.143018E-7
         9605.561     4.398291E-7
         9614.128     3.655534E-7
         9622.704     3.568263E-7
         9631.286     5.582214E-7
         9639.882     2.957350E-7
         9648.485     2.379043E-7
         9657.092     3.788688E-7
         9665.711     3.639682E-7
         9674.332     2.331045E-7
         9682.961     1.883637E-7
         9691.603     3.054804E-7
         9700.252     2.874438E-7
         9708.904     3.372535E-7
         9717.569     2.911707E-7
         9726.237     1.880152E-7
         9734.912     2.438475E-7
         9743.601     3.411301E-7
         9752.291     3.022661E-7
         9760.995     2.498506E-7
         9769.701     3.317308E-7
         9778.421     2.728108E-7
         9787.147     3.110109E-7
         9795.872     3.007179E-7
         9804.614     2.535350E-7
         9813.359     2.769568E-7
         9822.118     3.745537E-7
         9830.884     3.416414E-7
         9839.652     2.594349E-7
         9848.435     2.637472E-7
         9857.219     3.404793E-7
         9866.011     2.997895E-7
         9874.816     2.044812E-7
         9883.624     2.084407E-7
         9892.444     2.805623E-7
         9901.273     2.083791E-7
         9910.104     2.420906E-7
         9918.944     3.315324E-7
         9927.791     2.904667E-7
         9936.651     2.892176E-7
         9945.521     2.747418E-7
         9954.391     2.274497E-7
         9963.275     2.012451E-7
         9972.162     2.162118E-7
         9981.057     1.854088E-7
         9989.964     1.925744E-7
          9998.88     2.190649E-7
          10007.8     2.408608E-7
         10016.72     2.521093E-7
         10025.67     2.563154E-7
          10034.6     2.637103E-7
         10043.56     2.625951E-7
         10052.52     2.492512E-7
         10061.49     2.453752E-7
         10070.47     1.970411E-7
         10079.46     1.895606E-7
         10088.45     2.618273E-7
         10097.44     2.091723E-7
         10106.46     2.250744E-7
         10115.48     2.011291E-7
          10124.5     1.865721E-7
         10133.53     2.136316E-7
         10142.58     2.076608E-7
         10151.62     1.835262E-7
         10160.68     1.993543E-7
         10169.74     2.144347E-7
         10178.81     1.929002E-7
          10187.9     2.041872E-7
         10196.99     1.972168E-7
         10206.08     2.026412E-7
         10215.19     2.133122E-7
         10224.31     2.170483E-7
         10233.43     2.147782E-7
         10242.56     2.054786E-7
         10251.69     1.889330E-7
         10260.85     1.894505E-7
           10270.     1.974452E-7
         10279.16     1.936343E-7
         10288.33     1.880787E-7
         10297.51     1.798057E-7
          10306.7     1.782588E-7
         10315.89     1.751691E-7
          10325.1     1.706060E-7
          10334.3     1.638059E-7
         10343.53     1.565793E-7
         10352.76     1.624202E-7
         10361.99     1.733709E-7
         10371.25     1.371712E-7
          10380.5     1.294304E-7
         10389.76     1.481811E-7
         10399.02     1.525318E-7
          10408.3     1.417610E-7
         10417.59     1.251781E-7
         10426.89     1.293826E-7
         10436.19     1.271721E-7
         10445.49     1.317543E-7
         10454.82     1.251603E-7
         10464.15     1.120632E-7
         10473.48     1.073169E-7
         10482.82     9.542797E-8
         10492.17     8.400190E-8
         10501.54     8.483443E-8
         10510.91     9.280687E-8
         10520.29     9.488449E-8
         10529.67     8.552050E-8
         10539.07     8.075141E-8
         10548.47     8.603981E-8
         10557.88     9.250066E-8
         10567.31     8.955127E-8
         10576.73     9.116959E-8
         10586.17     9.133755E-8
         10595.61     8.698562E-8
         10605.06     8.321675E-8
         10614.53     8.026873E-8
           10624.     8.122124E-8
         10633.48     8.477780E-8
         10642.96     8.082917E-8
         10652.45     7.701411E-8
         10661.97     7.911386E-8
         10671.48     8.149943E-8
         10680.99     8.107979E-8
         10690.53     7.918340E-8
         10700.07     7.532152E-8
         10709.61     7.322686E-8
         10719.16     7.534024E-8
         10728.72     7.384195E-8
         10738.31     7.266663E-8
         10747.88     7.252206E-8
         10757.47     6.910972E-8
         10767.08     6.741988E-8
         10776.67     6.885991E-8
         10786.29     6.518259E-8
         10795.91     6.419108E-8
         10805.54     6.426870E-8
         10815.18     6.375973E-8
         10824.83     6.231199E-8
         10834.49     5.985459E-8
         10844.17     5.835647E-8
         10853.84     5.659895E-8
         10863.52     5.478676E-8
         10873.21     5.314330E-8
         10882.91     5.171492E-8
         10892.63     5.265918E-8
         10902.35     5.024115E-8
         10912.07     4.632437E-8
         10921.81     4.570617E-8
         10931.54     4.433880E-8
         10941.31     4.335049E-8
         10951.07     4.177862E-8
         10960.83     3.786176E-8
         10970.62     3.758042E-8
         10980.39     3.565292E-8
          10990.2     3.398957E-8
           11000.     3.100578E-8
