#  Table wf3f160bwsys.tab  Mon 12:22:11 02-Jun-97

#      WAVELENGTH      THROUGHPUT
#       angstroms                

            1216.     3.699540E-4
          1217.34     3.767027E-4
         1218.682     3.835400E-4
         1220.026     3.904519E-4
         1221.371     3.962674E-4
         1222.717     4.021482E-4
         1224.065     4.081019E-4
         1225.414     4.141249E-4
         1226.765     4.202188E-4
         1228.117     4.263840E-4
         1229.471     4.326208E-4
         1230.826     4.382503E-4
         1232.183     4.435052E-4
         1233.542     4.488143E-4
         1234.901     4.541708E-4
         1236.262     4.595821E-4
         1237.625     4.650442E-4
         1238.989     4.705625E-4
         1240.355     4.758992E-4
         1241.722     4.805967E-4
         1243.091     4.853351E-4
         1244.461     4.901120E-4
         1245.833     4.949257E-4
         1247.207     4.997832E-4
         1248.582     5.046785E-4
         1249.957     5.096107E-4
         1251.335     5.139050E-4
         1252.715     5.182070E-4
         1254.095     5.225362E-4
         1255.478     5.268989E-4
         1256.862     5.312894E-4
         1258.247     5.357072E-4
         1259.634     5.401572E-4
         1261.023     5.441988E-4
         1262.413     5.481060E-4
         1263.805     5.520351E-4
         1265.198     5.559856E-4
         1266.592     5.599563E-4
         1267.989     5.639513E-4
         1269.387     5.679700E-4
         1270.786     5.717174E-4
         1272.187     5.752573E-4
         1273.588     5.788109E-4
         1274.992     5.823820E-4
         1276.399     5.859702E-4
         1277.805     5.895709E-4
         1279.214     5.931885E-4
         1280.624     5.966391E-4
         1282.035     5.998690E-4
         1283.449     6.031129E-4
         1284.864     6.063660E-4
          1286.28     6.096278E-4
         1287.698     6.129025E-4
         1289.117     6.161876E-4
         1290.538     6.193674E-4
         1291.961     6.223651E-4
         1293.385     6.253697E-4
         1294.811     6.283805E-4
         1296.238     6.313996E-4
         1297.668     6.344276E-4
         1299.098     6.374601E-4
          1300.53     6.401029E-4
         1301.963     6.420706E-4
         1303.398     6.440398E-4
         1304.835     6.460121E-4
         1306.274     6.479875E-4
         1307.713     6.499633E-4
         1309.155     6.519424E-4
         1310.597     6.538571E-4
         1312.042     6.556812E-4
         1313.489     6.575063E-4
         1314.937     6.593329E-4
         1316.386     6.611587E-4
         1317.837     6.629861E-4
          1319.29     6.648136E-4
         1320.744     6.665774E-4
           1322.2     6.682791E-4
         1323.657     6.699803E-4
         1325.117     6.716814E-4
         1326.578     6.733820E-4
         1328.039     6.750814E-4
         1329.503     6.767812E-4
         1330.969     6.784035E-4
         1332.436     6.799847E-4
         1333.905     6.815649E-4
         1335.376     6.831435E-4
         1336.847     6.847196E-4
         1338.321     6.862950E-4
         1339.796     6.878689E-4
         1341.273     6.893729E-4
         1342.752     6.908640E-4
         1344.232     6.923527E-4
         1345.713     6.938382E-4
         1347.197     6.953221E-4
         1348.682     6.968037E-4
         1350.169     6.982759E-4
         1351.657     6.996920E-4
         1353.146     7.011045E-4
         1354.638     7.024514E-4
         1356.131     7.037110E-4
         1357.627     7.049679E-4
         1359.123     7.062203E-4
         1360.621     7.074559E-4
         1362.121     7.086683E-4
         1363.622     7.098763E-4
         1365.126     7.110819E-4
          1366.63     7.122825E-4
         1368.137     7.134800E-4
         1369.645     7.146737E-4
         1371.155     7.158626E-4
         1372.667     7.170486E-4
          1374.18     7.182301E-4
         1375.694     7.194072E-4
         1377.211     7.205808E-4
         1378.729     7.217504E-4
         1380.249     7.229194E-4
         1381.771     7.241013E-4
         1383.294     7.252794E-4
         1384.818     7.264528E-4
         1386.345     7.276227E-4
         1387.874     7.287894E-4
         1389.403     7.299506E-4
         1390.935     7.311421E-4
         1392.468     7.323512E-4
         1394.002     7.335560E-4
          1395.54     7.347582E-4
         1397.078     7.359561E-4
         1398.618     7.371496E-4
          1400.16     7.381818E-4
         1401.703     7.378416E-4
         1403.248     7.374970E-4
         1404.795     7.371479E-4
         1406.343     7.367946E-4
         1407.894     7.364370E-4
         1409.446     7.360748E-4
         1410.999     7.357319E-4
         1412.555     7.353976E-4
         1414.112     7.350589E-4
          1415.67     7.347163E-4
         1417.231     7.343693E-4
         1418.793     7.340181E-4
         1420.357     7.336591E-4
         1421.923     7.332840E-4
         1423.491     7.329046E-4
         1425.059     7.325212E-4
          1426.63     7.321333E-4
         1428.203     7.317412E-4
         1429.777     7.313449E-4
         1431.354     7.308972E-4
         1432.932     7.304375E-4
          1434.51     7.299736E-4
         1436.092     7.295050E-4
         1437.676     7.290318E-4
          1439.26     7.285548E-4
         1440.847     7.280149E-4
         1442.435     7.274194E-4
         1444.024     7.268197E-4
         1445.617     7.262150E-4
          1447.21     7.256060E-4
         1448.805     7.249922E-4
         1450.402     7.243332E-4
         1452.001     7.235488E-4
         1453.602     7.227588E-4
         1455.205     7.219641E-4
         1456.808     7.211651E-4
         1458.414     7.203607E-4
         1460.022     7.195486E-4
         1461.631     7.185332E-4
         1463.243     7.175127E-4
         1464.856     7.164869E-4
          1466.47     7.154564E-4
         1468.086     7.144200E-4
         1469.706     7.133778E-4
         1471.325     7.121218E-4
         1472.947     7.108132E-4
         1474.571     7.094987E-4
         1476.196     7.081790E-4
         1477.824     7.068526E-4
         1479.453     7.055214E-4
         1481.083     7.039874E-4
         1482.716     7.023469E-4
          1484.35     7.007006E-4
         1485.987     6.990482E-4
         1487.625     6.979273E-4
         1489.264     6.976654E-4
         1490.906     6.971975E-4
         1492.549     6.965581E-4
         1494.195     6.959013E-4
         1495.842     6.952269E-4
         1497.491     6.945350E-4
         1499.142     6.938257E-4
         1500.794     6.920689E-4
         1502.449     6.891777E-4
         1504.105     6.862715E-4
         1505.763     6.833465E-4
         1507.423     6.804040E-4
         1509.084     6.774460E-4
         1510.748     6.743483E-4
         1512.414     6.710895E-4
          1514.08     6.678154E-4
         1515.749     6.645237E-4
         1517.419     6.612172E-4
         1519.093     6.578913E-4
         1520.768     6.544796E-4
         1522.444     6.509679E-4
         1524.122     6.474425E-4
         1525.802     6.439005E-4
         1527.484     6.403438E-4
         1529.168     6.367722E-4
         1530.854     6.331519E-4
          1532.54     6.294855E-4
          1534.23     6.258038E-4
         1535.921     6.221083E-4
         1537.615     6.183978E-4
          1539.31     6.146776E-4
         1541.006     6.109592E-4
         1542.705     6.072390E-4
         1544.405     6.035086E-4
         1546.109     5.988001E-4
         1547.812     5.935903E-4
         1549.518     5.883930E-4
         1551.227     5.832884E-4
         1552.936     5.782318E-4
         1554.648     5.731875E-4
         1556.363     5.681552E-4
         1558.078     5.631422E-4
         1559.795     5.581423E-4
         1561.515     5.533253E-4
         1563.235     5.485477E-4
         1564.958     5.437817E-4
         1566.685     5.390272E-4
         1568.411     5.342911E-4
          1570.14     5.295870E-4
         1571.871     5.251255E-4
         1573.603     5.206790E-4
         1575.338     5.162429E-4
         1577.075     5.118171E-4
         1578.813     5.074085E-4
         1580.553     5.031130E-4
         1582.295     4.990509E-4
         1584.039     4.949975E-4
         1585.785     4.909553E-4
         1587.534     4.869240E-4
         1589.284     4.829038E-4
         1591.036     4.791137E-4
          1592.79     4.754846E-4
         1594.545     4.718665E-4
         1596.303     4.682555E-4
         1598.062     4.646537E-4
         1599.824     4.610608E-4
         1601.588     4.570977E-4
         1603.353     4.531077E-4
          1605.12     4.491292E-4
          1606.89     4.451639E-4
         1608.661     4.412121E-4
         1610.434     4.373778E-4
          1612.21     4.338750E-4
         1613.986     4.303834E-4
         1615.765     4.269001E-4
         1617.548     4.234245E-4
          1619.33     4.199624E-4
         1621.115     4.167726E-4
         1622.902     4.137482E-4
          1624.69     4.107315E-4
         1626.482     4.077180E-4
         1628.275     4.047135E-4
         1630.069     4.017304E-4
         1631.867     3.991561E-4
         1633.665     3.965860E-4
         1635.466     3.940158E-4
         1637.269     3.914494E-4
         1639.074     3.888859E-4
          1640.88     3.865330E-4
         1642.689     3.843967E-4
           1644.5     3.822597E-4
         1646.313     3.801220E-4
         1648.128     3.780062E-4
         1649.944     3.761892E-4
         1651.763     3.747769E-4
         1653.585     3.733697E-4
         1655.407     3.719567E-4
         1657.232     3.705357E-4
         1659.058     3.691082E-4
         1660.888     3.678571E-4
         1662.719     3.667946E-4
         1664.552     3.657225E-4
         1666.386     3.646415E-4
         1668.223     3.635504E-4
         1670.062     3.624610E-4
         1671.903     3.616821E-4
         1673.746     3.608920E-4
          1675.59     3.600907E-4
         1677.437     3.592777E-4
         1679.287     3.584530E-4
         1681.139     3.577919E-4
         1682.991     3.572284E-4
         1684.847     3.566518E-4
         1686.704     3.560617E-4
         1688.563     3.554586E-4
         1690.425     3.548964E-4
         1692.287     3.545062E-4
         1694.153     3.541011E-4
         1696.021     3.536810E-4
          1697.89     3.532461E-4
         1699.762     3.527956E-4
         1701.636     3.529228E-4
         1703.512     3.531252E-4
         1705.389     3.533166E-4
         1707.269     3.534971E-4
         1709.151     3.536666E-4
         1711.035     3.539197E-4
         1712.922     3.542392E-4
         1714.809     3.545468E-4
         1716.699     3.548427E-4
         1718.592     3.551265E-4
         1720.485     3.554326E-4
         1722.383     3.558272E-4
         1724.281     3.562086E-4
         1726.182     3.565773E-4
         1728.086     3.569333E-4
          1729.99     3.572760E-4
         1731.897     3.577153E-4
         1733.806     3.581416E-4
         1735.718     3.585540E-4
          1737.63     3.589524E-4
         1739.546     3.593367E-4
         1741.463     3.597696E-4
         1743.383     3.602075E-4
         1745.305     3.606305E-4
         1747.228     3.610383E-4
         1749.154     3.614311E-4
         1751.084     3.614922E-4
         1753.013     3.612909E-4
         1754.946     3.610737E-4
          1756.88     3.608405E-4
         1758.817     3.605914E-4
         1760.756     3.603441E-4
         1762.697     3.601087E-4
         1764.639     3.598566E-4
         1766.585     3.595877E-4
         1768.532     3.593017E-4
         1770.482     3.590099E-4
         1772.434     3.587342E-4
         1774.387     3.584409E-4
         1776.343     3.581299E-4
         1778.301     3.578009E-4
         1780.262     3.574591E-4
         1782.224     3.571345E-4
         1784.189     3.567911E-4
         1786.156     3.564289E-4
         1788.124     3.560480E-4
         1790.096     3.556498E-4
         1792.068     3.552735E-4
         1794.044     3.548772E-4
         1796.022     3.544612E-4
         1798.001     3.540255E-4
         1799.984     3.535692E-4
         1801.968     3.515685E-4
         1803.954     3.495161E-4
         1805.942     3.474250E-4
         1807.933     3.452932E-4
         1809.926     3.431212E-4
         1811.922     3.409446E-4
         1813.919     3.387280E-4
         1815.918     3.364710E-4
          1817.92     3.341706E-4
         1819.925     3.318269E-4
          1821.93     3.294749E-4
         1823.938     3.270797E-4
         1825.948     3.246416E-4
         1827.962     3.221570E-4
         1829.976     3.196303E-4
         1831.995     3.170880E-4
         1834.013     3.145029E-4
         1836.035     3.118702E-4
         1838.059     3.091911E-4
         1840.084     3.064677E-4
         1842.113     3.037231E-4
         1844.144     3.009303E-4
         1846.177     2.980890E-4
         1848.212     2.951988E-4
         1850.248     2.922641E-4
         1852.288     2.893025E-4
          1854.33     2.862902E-4
         1856.375     2.832252E-4
         1858.421     2.801120E-4
         1860.469     2.769516E-4
          1862.52     2.737606E-4
         1864.573     2.705149E-4
         1866.628     2.672155E-4
         1868.686     2.638620E-4
         1870.746     2.604625E-4
         1872.808     2.570223E-4
         1874.872     2.535279E-4
         1876.939     2.499754E-4
         1879.008     2.463655E-4
         1881.079     2.424989E-4
         1883.153     2.385908E-4
         1885.229     2.346302E-4
         1887.307     2.306190E-4
         1889.387     2.265529E-4
         1891.471     2.224446E-4
         1893.555     2.182917E-4
         1895.643     2.140821E-4
         1897.732     2.098179E-4
         1899.823     2.055007E-4
         1901.919     2.036239E-4
         1904.014     2.019511E-4
         1906.113     2.002504E-4
         1908.215     1.985227E-4
         1910.317     1.967710E-4
         1912.424     1.950039E-4
         1914.532     1.932104E-4
         1916.643     1.913874E-4
         1918.755     1.895378E-4
          1920.87     1.876644E-4
         1922.988     1.857697E-4
         1925.107     1.838470E-4
          1927.23     1.818934E-4
         1929.354     1.799125E-4
         1931.481     1.779106E-4
          1933.61     1.758830E-4
          1935.74     1.738265E-4
         1937.875     1.717376E-4
         1940.011     1.696206E-4
         1942.149     1.674811E-4
          1944.29     1.653106E-4
         1946.434     1.631090E-4
          1948.58     1.608762E-4
         1950.728     1.586158E-4
         1952.878     1.563312E-4
          1955.03     1.540155E-4
         1957.185     1.516665E-4
         1959.343     1.492851E-4
         1961.503     1.468751E-4
         1963.665     1.444341E-4
         1965.829     1.419612E-4
         1967.996     1.394539E-4
         1970.167     1.369125E-4
         1972.339     1.343459E-4
         1974.512     1.317466E-4
         1976.689     1.291116E-4
         1978.868     1.264426E-4
         1981.049     1.237410E-4
         1983.233     1.210068E-4
         1985.418     1.182391E-4
         1987.607     1.154346E-4
         1989.798     1.125949E-4
         1991.992     1.093129E-4
         1994.188     1.059489E-4
         1996.386     1.025441E-4
         1998.586     9.909998E-5
         2000.789     9.625700E-5
         2002.996     9.453699E-5
         2005.203     9.279246E-5
         2007.414     9.102060E-5
         2009.627     8.922211E-5
         2011.841     8.681884E-5
          2014.06     8.426057E-5
         2016.279     8.166899E-5
         2018.502     7.903980E-5
         2020.727     7.645197E-5
         2022.955     7.398993E-5
         2025.185     7.149397E-5
         2027.417     6.896376E-5
         2029.652     6.639933E-5
         2031.889     6.421838E-5
         2034.129     6.208404E-5
         2036.371     5.992056E-5
         2038.616     5.772807E-5
         2040.864     5.570081E-5
         2043.112     5.396098E-5
         2045.365     5.219690E-5
         2047.621     5.040825E-5
         2049.877     4.859775E-5
         2052.137     4.750424E-5
         2054.399     4.643886E-5
         2056.664     4.535880E-5
         2058.931     4.426387E-5
         2061.201     4.272550E-5
         2063.472     4.078421E-5
         2065.747     3.881781E-5
         2068.024     3.682677E-5
         2070.304     3.484760E-5
         2072.586     3.308274E-5
         2074.871     3.129663E-5
         2077.157     2.948953E-5
         2079.447     2.765995E-5
          2081.74     2.645412E-5
         2084.034     2.544135E-5
         2086.332     2.441591E-5
         2088.632     2.337804E-5
         2090.933     2.209099E-5
          2093.24     2.043708E-5
         2095.546     1.876632E-5
         2097.856     1.707593E-5
         2100.169     1.540997E-5
         2102.483     1.428164E-5
         2104.802     1.313963E-5
         2107.121     1.198640E-5
         2109.444     1.081993E-5
         2111.769     9.767906E-6
         2114.097     8.744861E-6
         2116.428     7.711142E-6
          2118.76     6.667131E-6
         2121.097     5.875037E-6
         2123.434     5.375228E-6
         2125.775     4.870116E-6
         2128.118     4.359883E-6
         2130.463     3.886989E-6
         2132.813     3.581339E-6
         2135.163     3.273018E-6
         2137.518     2.961401E-6
         2139.875     2.647668E-6
         2142.231     2.448790E-6
         2144.594     2.254279E-6
         2146.958     2.057920E-6
         2149.325     1.859624E-6
         2151.693     1.712803E-6
         2154.065     1.585905E-6
          2156.44     1.457814E-6
         2158.817     1.328508E-6
         2161.197     1.221273E-6
         2163.578     1.136261E-6
         2165.964     1.050433E-6
         2168.353     9.638007E-7
         2170.743     8.856219E-7
         2173.135     8.272592E-7
         2175.529     7.684079E-7
         2177.929     7.090052E-7
         2180.329     6.518216E-7
         2182.733     6.108908E-7
         2185.138     5.696848E-7
         2187.547     5.281389E-7
         2189.959     4.862728E-7
         2192.372     4.568689E-7
         2194.789     4.274665E-7
         2197.208     3.978537E-7
         2199.632     3.680202E-7
         2202.056     3.476223E-7
         2204.482     3.285236E-7
         2206.912     3.089679E-7
         2209.345     2.889616E-7
         2211.782     2.731728E-7
         2214.219     2.587821E-7
          2216.66     2.440602E-7
         2219.104     2.290120E-7
         2221.549     2.165804E-7
         2223.998     2.055932E-7
         2226.449     1.943685E-7
         2228.904     1.829033E-7
         2231.361     1.730887E-7
          2233.82     1.646103E-7
         2236.284     1.559473E-7
         2238.748     1.471157E-7
         2241.217     1.393498E-7
         2243.687     1.327370E-7
         2246.159     1.259924E-7
         2248.636     1.191082E-7
         2251.114     1.129555E-7
         2253.597     1.077412E-7
          2256.08     1.024324E-7
         2258.567     9.702068E-8
         2261.057     9.212586E-8
         2263.548     8.798924E-8
         2266.045     8.377189E-8
         2268.542     7.948207E-8
         2271.042     7.557909E-8
         2273.546     7.226514E-8
         2276.051     6.889414E-8
         2278.562     6.546075E-8
         2281.072     6.234239E-8
         2283.588     5.967036E-8
         2286.104     5.695509E-8
         2288.623     5.419353E-8
         2291.147     5.169223E-8
         2293.672     4.952529E-8
         2296.202     4.732173E-8
         2298.732     4.510078E-8
         2301.266     4.310893E-8
         2303.803     4.135424E-8
         2306.342     3.957006E-8
         2308.885     3.775382E-8
         2311.431     3.614769E-8
         2313.979     3.470316E-8
          2316.53     3.323434E-8
         2319.082     3.174193E-8
         2321.639     3.044344E-8
         2324.198     2.924747E-8
          2326.76     2.803192E-8
         2329.325     2.679678E-8
         2331.892     2.574521E-8
         2334.463     2.474928E-8
         2337.038     2.373692E-8
         2339.613     2.270975E-8
         2342.193     2.185524E-8
         2344.774     2.102203E-8
         2347.357     2.017599E-8
         2349.947     1.931607E-8
         2352.536     1.862178E-8
         2355.131     1.792006E-8
         2357.726     1.720852E-8
         2360.326     1.650413E-8
         2362.927     1.592018E-8
         2365.531     1.532756E-8
          2368.14     1.472571E-8
         2370.749     1.415064E-8
         2373.364     1.365405E-8
         2375.979     1.315089E-8
         2378.598     1.264032E-8
          2381.22     1.216939E-8
         2383.844     1.174635E-8
         2386.473     1.131696E-8
         2389.103     1.088212E-8
         2391.737     1.049618E-8
         2394.373     1.013369E-8
         2397.012     9.766475E-9
         2399.656     9.394033E-9
           2402.3     9.077596E-9
         2404.949     8.765841E-9
           2407.6     8.450218E-9
         2410.252     8.136346E-9
          2412.91     7.870933E-9
          2415.57     7.602307E-9
         2418.233     7.330307E-9
         2420.898     7.071491E-9
         2423.567     6.841947E-9
         2426.238     6.609606E-9
         2428.913     6.374408E-9
         2431.591     6.160931E-9
         2434.271     5.961781E-9
         2436.954     5.760361E-9
         2439.641     5.556351E-9
         2442.331     5.380474E-9
         2445.022     5.207327E-9
         2447.718     5.032065E-9
         2450.416     4.859369E-9
         2453.117     4.709973E-9
         2455.822     4.558861E-9
         2458.528     4.406097E-9
         2461.239     4.263067E-9
         2463.951     4.132437E-9
         2466.669     4.000207E-9
         2469.387     3.866619E-9
         2472.108     3.748434E-9
         2474.834     3.633766E-9
         2477.561     3.517943E-9
         2480.294     3.402731E-9
         2483.027     3.303138E-9
         2485.764     3.202396E-9
         2488.504     3.100546E-9
         2491.246     3.004989E-9
         2493.994     2.917159E-9
         2496.742     2.828466E-9
         2499.494     2.738757E-9
          2502.25     2.659484E-9
         2505.007     2.581970E-9
          2507.77     2.503536E-9
         2510.533     2.426672E-9
         2513.302     2.358729E-9
         2516.072     2.290118E-9
         2518.844     2.220768E-9
         2521.622     2.156730E-9
         2524.401     2.096459E-9
         2527.185     2.035478E-9
         2529.969     1.973899E-9
         2532.759     1.920742E-9
         2535.551     1.867110E-9
         2538.344     1.810930E-9
         2541.144     1.755410E-9
         2543.946     1.704319E-9
          2546.75     1.652938E-9
         2549.558     1.601264E-9
         2552.367     1.555180E-9
          2555.18     1.509905E-9
         2557.997     1.464370E-9
         2560.817     1.420326E-9
         2563.639     1.380355E-9
         2566.465     1.340132E-9
         2569.294     1.299680E-9
         2572.128     1.262958E-9
         2574.962     1.227379E-9
           2577.8     1.191598E-9
         2580.643     1.156624E-9
         2583.486     1.125079E-9
         2586.336     1.093318E-9
         2589.186     1.061408E-9
         2592.039     1.032218E-9
         2594.897     1.003994E-9
         2597.757    9.756347E-10
         2600.622    9.478575E-10
         2603.487    9.227524E-10
         2606.357    8.974853E-10
         2609.231    8.720691E-10
         2612.106    8.488324E-10
         2614.985    8.262931E-10
          2617.87    8.036071E-10
         2620.754    7.815366E-10
         2623.643    7.613831E-10
         2626.536    7.411075E-10
         2629.431    7.207100E-10
         2632.328    7.021822E-10
         2635.232    6.840081E-10
         2638.135    6.657416E-10
         2641.045    6.481258E-10
         2643.955    6.318179E-10
          2646.87    6.154005E-10
         2649.788    5.988837E-10
         2652.708    5.840754E-10
         2655.633    5.693023E-10
          2658.56    5.544524E-10
          2661.49    5.403807E-10
         2664.424    5.270693E-10
          2667.36    5.136826E-10
         2670.302    5.003564E-10
         2673.244    4.883365E-10
         2676.193    4.762294E-10
         2679.142    4.640605E-10
         2682.094    4.527898E-10
         2685.052    4.418388E-10
         2688.012    4.308260E-10
         2690.975    4.201464E-10
          2693.94    4.102269E-10
          2696.91    4.002416E-10
         2699.883    3.901950E-10
         2702.858    3.818313E-10
         2705.839    3.734442E-10
         2708.822    3.649751E-10
         2711.807    3.570198E-10
         2714.796    3.493692E-10
         2717.789    3.416392E-10
         2720.785    3.340641E-10
         2723.785    3.270726E-10
         2726.788    3.200091E-10
         2729.792    3.128768E-10
         2732.802    3.064175E-10
         2735.814    2.999478E-10
          2738.83    2.934120E-10
         2741.849    2.872582E-10
         2744.872    2.813263E-10
         2747.898    2.753339E-10
         2750.926    2.692486E-10
         2753.958    2.630481E-10
         2756.994    2.568282E-10
         2760.034    2.505950E-10
         2763.076    2.449275E-10
         2766.121    2.392451E-10
         2769.172    2.335389E-10
         2772.223    2.282103E-10
         2775.281    2.230055E-10
         2778.339    2.177898E-10
           2781.4    2.127769E-10
         2784.468    2.080054E-10
         2787.536    2.032238E-10
          2790.61    1.985090E-10
         2793.685    1.941325E-10
         2796.765    1.897408E-10
         2799.848    1.853360E-10
         2802.933    1.812947E-10
         2806.025    1.772570E-10
         2809.117    1.732114E-10
         2812.213    1.694065E-10
         2815.314    1.656920E-10
         2818.417    1.619669E-10
         2821.524    1.583895E-10
         2824.633    1.549690E-10
         2827.749    1.515352E-10
         2830.865    1.481771E-10
         2833.985    1.450221E-10
         2837.109    1.418585E-10
         2840.236    1.387072E-10
         2843.368    1.357915E-10
         2846.501    1.328705E-10
         2849.641    1.299385E-10
         2852.781    1.272194E-10
         2855.924    1.245210E-10
         2859.074    1.218125E-10
         2862.226    1.192563E-10
         2865.381    1.167591E-10
          2868.54    1.142550E-10
         2871.701    1.118550E-10
         2874.866    1.095414E-10
         2878.036    1.072215E-10
         2881.208    1.049676E-10
         2884.385    1.028246E-10
         2887.563    1.006771E-10
         2890.748    9.856182E-11
         2893.935    9.657272E-11
         2897.123    9.457951E-11
         2900.317    9.257514E-11
         2903.515    9.052468E-11
         2906.715    8.847789E-11
          2909.92    8.643445E-11
         2913.126    8.453464E-11
         2916.338    8.264064E-11
         2919.552    8.075025E-11
         2922.773    7.897456E-11
         2925.993    7.722201E-11
         2929.217    7.547259E-11
         2932.448    7.381475E-11
         2935.679    7.219032E-11
         2938.916    7.056818E-11
         2942.155    6.902247E-11
         2945.399    6.751652E-11
         2948.646    6.601343E-11
         2951.895    6.457154E-11
         2955.151    6.317223E-11
         2958.407    6.177715E-11
         2961.668    6.043138E-11
         2964.933    5.913348E-11
           2968.2    5.783877E-11
         2971.474    5.658308E-11
         2974.748    5.537698E-11
         2978.027    5.417286E-11
          2981.31    5.300184E-11
         2984.595    5.187983E-11
         2987.887    5.075922E-11
         2991.179    4.966749E-11
         2994.477    4.862301E-11
         2997.778    4.758089E-11
         3001.083    4.656220E-11
         3004.391    4.558930E-11
         3007.702    4.461910E-11
         3011.019    4.366849E-11
         3014.337    4.276242E-11
         3017.658    4.185849E-11
         3020.987    4.097192E-11
         3024.317    4.012631E-11
         3027.651    3.928268E-11
         3030.987    3.845629E-11
         3034.328    3.766695E-11
         3037.673    3.687950E-11
         3041.022    3.610819E-11
         3044.375    3.537124E-11
         3047.731    3.463615E-11
         3051.089    3.391706E-11
         3054.454    3.322793E-11
          3057.82    3.254117E-11
         3061.191    3.186990E-11
         3064.565    3.122597E-11
         3067.944    3.058367E-11
         3071.326    2.995745E-11
          3074.71    2.935545E-11
           3078.1    2.875474E-11
         3081.495    2.817011E-11
          3084.89    2.760640E-11
         3088.292    2.704367E-11
         3091.696    2.649855E-11
         3095.102    2.597065E-11
         3098.516    2.544361E-11
          3101.93    2.499237E-11
         3105.351    2.459625E-11
         3108.773    2.419849E-11
           3112.2    2.381599E-11
         3115.631    2.344130E-11
         3119.064    2.306483E-11
         3122.504    2.270470E-11
         3125.945    2.235005E-11
         3129.391    2.199334E-11
         3132.841    2.165443E-11
         3136.294    2.131796E-11
         3139.752    2.097974E-11
         3143.211    2.066106E-11
         3146.678    2.034206E-11
         3150.145    2.002260E-11
         3153.618    1.972142E-11
         3157.095    1.941869E-11
         3160.573    1.911783E-11
         3164.059    1.883177E-11
         3167.546    1.854452E-11
         3171.039    1.826100E-11
         3174.533    1.798934E-11
         3178.031    1.771629E-11
         3181.536    1.744936E-11
         3185.044    1.719121E-11
         3188.555    1.693172E-11
         3192.068    1.668069E-11
         3195.587    1.643498E-11
          3199.11    1.618801E-11
         3202.637    1.595146E-11
         3206.167    1.571767E-11
           3209.7    1.548277E-11
         3213.239    1.526022E-11
         3216.781    1.503777E-11
         3220.327    1.481544E-11
         3223.877    1.460448E-11
         3227.431    1.439240E-11
         3230.989    1.418289E-11
         3234.549    1.398187E-11
         3238.115    1.377968E-11
         3241.685    1.358242E-11
         3245.259    1.339081E-11
         3248.836    1.319819E-11
         3252.418    1.301237E-11
         3256.003    1.282935E-11
         3259.591    1.264547E-11
         3263.186    1.247035E-11
         3266.781    1.229577E-11
         3270.383    1.212130E-11
         3273.988    1.195542E-11
         3277.596    1.178875E-11
         3281.209    1.162440E-11
         3284.826    1.146574E-11
         3288.449    1.130616E-11
         3292.073    1.115138E-11
           3295.7    1.099989E-11
         3299.335    1.084743E-11
          3302.97    1.070164E-11
         3306.614    1.055657E-11
         3310.257    1.041147E-11
         3313.906    1.027339E-11
         3317.559    1.013459E-11
         3321.215    9.997799E-12
         3324.878    9.865550E-12
         3328.542    9.732742E-12
         3332.211    9.603808E-12
         3335.885    9.477267E-12
          3339.56    9.350119E-12
         3343.244    9.228549E-12
         3346.927    9.107330E-12
         3350.619    8.986485E-12
         3354.311    8.870865E-12
         3358.007    8.754619E-12
          3361.71    8.640653E-12
         3365.415    8.529702E-12
         3369.126    8.418040E-12
         3372.839    8.310768E-12
         3376.557    8.204364E-12
         3380.279    8.097831E-12
         3384.004    7.996236E-12
         3387.736    7.893987E-12
         3391.469    7.793534E-12
         3395.208    7.695973E-12
         3398.953    7.597822E-12
         3402.698    7.503114E-12
         3406.449    7.409354E-12
         3410.204    7.315345E-12
         3413.964    7.225677E-12
         3417.727    7.135519E-12
         3421.493    7.046884E-12
         3425.265    6.960740E-12
         3429.043    6.874076E-12
         3432.821    6.790532E-12
         3436.606    6.707675E-12
         3440.394    6.624817E-12
         3444.185    6.545548E-12
         3447.984    6.465751E-12
         3451.783    6.387617E-12
         3455.588    6.311313E-12
         3459.398    6.234574E-12
         3463.211    6.160819E-12
         3467.029    6.087280E-12
          3470.85    6.014235E-12
         3474.678    5.943787E-12
         3478.506    5.873000E-12
         3482.339    5.804130E-12
          3486.18    5.736273E-12
         3490.023    5.668086E-12
         3493.871    5.603016E-12
          3497.72    5.537600E-12
         3501.576    5.473194E-12
         3505.437    5.410477E-12
         3509.301    5.347390E-12
          3513.17    5.286647E-12
         3517.041    5.226178E-12
         3520.918    5.166047E-12
         3524.799    5.107940E-12
         3528.685    5.049484E-12
         3532.575    4.992747E-12
         3536.468    4.936760E-12
         3540.368    4.880639E-12
         3544.269    4.826773E-12
         3548.176    4.772557E-12
         3552.088    4.719500E-12
         3556.004    4.667430E-12
         3559.924    4.615042E-12
         3563.846    4.564996E-12
         3567.777    4.514648E-12
         3571.708    4.465132E-12
         3575.644    4.416743E-12
         3579.588    4.368011E-12
         3583.534    4.321210E-12
         3587.484    4.274382E-12
         3591.439    4.228106E-12
         3595.396    4.183044E-12
          3599.36    4.137679E-12
         3603.328    4.093942E-12
         3607.301    4.050301E-12
         3611.277    4.007060E-12
         3615.256    3.964988E-12
         3619.242    3.922637E-12
         3623.234    3.881737E-12
         3627.226    3.841030E-12
         3631.223    3.800653E-12
         3635.228    3.761325E-12
         3639.237    3.721752E-12
         3643.247    3.683503E-12
         3647.261    3.645377E-12
         3651.284    3.607566E-12
         3655.307    3.570825E-12
         3659.335    3.533850E-12
         3663.371    3.498070E-12
         3667.408    3.462388E-12
         3671.453    3.427049E-12
         3675.498    3.392600E-12
         3679.552    3.357897E-12
         3683.606    3.324454E-12
         3687.665    3.290980E-12
         3691.732    3.257926E-12
           3695.8    3.225598E-12
         3699.876    3.193032E-12
         3703.953    3.161732E-12
         3708.039    3.130247E-12
         3712.124    3.099351E-12
         3716.215    3.068961E-12
         3720.313    3.038452E-12
         3724.413    3.009062E-12
         3728.521    2.979453E-12
         3732.629    2.950546E-12
         3736.746    2.921913E-12
         3740.863    2.893398E-12
         3744.985    2.865725E-12
         3749.116    2.837846E-12
         3753.247    2.810799E-12
         3757.386    2.783817E-12
         3761.526    2.757120E-12
         3765.675    2.730970E-12
         3769.824    2.704678E-12
         3773.978    2.679363E-12
         3778.141    2.653909E-12
         3782.304    2.628918E-12
         3786.473    2.604238E-12
         3790.648    2.579563E-12
         3794.824    2.555638E-12
          3799.01    2.531534E-12
         3803.196    2.508127E-12
         3807.389    2.484809E-12
         3811.586    2.461713E-12
          3815.79    2.439069E-12
         3819.994    2.416300E-12
         3824.203    2.394333E-12
         3828.419    2.372214E-12
          3832.64    2.350542E-12
         3836.865    2.329082E-12
         3841.095    2.307722E-12
         3845.331    2.286894E-12
         3849.568    2.265952E-12
          3853.81    2.245645E-12
         3858.058    2.225286E-12
         3862.312    2.205246E-12
         3866.572    2.185448E-12
         3870.832    2.165704E-12
         3875.099    2.146488E-12
         3879.369    2.127158E-12
         3883.646    2.108352E-12
         3887.927    2.089543E-12
         3892.213    2.071013E-12
         3896.504    2.052742E-12
           3900.8    2.034489E-12
           3905.1    2.016708E-12
         3909.403    1.998823E-12
         3913.712    1.981417E-12
         3918.027    1.963999E-12
         3922.346    1.946838E-12
          3926.67    1.929878E-12
         3930.999    1.912970E-12
         3935.333    1.896483E-12
         3939.669    1.879901E-12
         3944.012    1.863762E-12
          3948.36    1.847569E-12
         3952.712    1.831673E-12
          3957.07    1.815921E-12
         3961.432    1.800258E-12
         3965.799    1.784883E-12
         3970.169    1.769445E-12
         3974.546    1.754481E-12
         3978.927    1.739425E-12
         3983.314    1.724700E-12
         3987.705    1.710021E-12
         3992.101    1.695497E-12
           3996.5    1.681159E-12
         4000.906    1.666075E-12
         4005.316    1.648427E-12
         4009.732    1.630763E-12
         4014.152    1.613556E-12
         4018.577    1.596366E-12
         4023.008    1.579488E-12
          4027.44    1.562761E-12
          4031.88    1.546211E-12
         4036.325    1.529919E-12
         4040.775    1.513693E-12
         4045.229    1.497825E-12
         4049.689    1.481947E-12
         4054.153    1.466470E-12
          4058.62    1.451023E-12
         4063.094    1.435841E-12
         4067.574    1.420778E-12
         4072.058    1.405892E-12
         4076.547    1.391219E-12
         4081.041    1.376630E-12
         4085.538    1.362342E-12
         4090.042    1.348045E-12
         4094.548    1.334141E-12
         4099.064    1.320215E-12
         4103.583    1.306562E-12
         4108.107    1.292974E-12
         4112.636    1.279598E-12
         4117.165    1.266386E-12
         4121.706    1.253270E-12
          4126.25    1.240355E-12
         4130.799    1.227498E-12
         4135.353    1.214923E-12
         4139.911    1.202345E-12
         4144.473    1.190098E-12
          4149.04    1.177856E-12
         4153.616    1.165823E-12
         4158.195    1.153853E-12
         4162.779    1.142071E-12
         4167.366    1.130416E-12
         4171.962    1.118872E-12
         4176.559    1.107501E-12
         4181.163    1.096198E-12
         4185.772    1.085112E-12
         4190.385    1.074052E-12
         4195.006    1.063225E-12
         4199.629    1.052406E-12
         4204.261    1.043418E-12
         4208.894    1.034569E-12
         4213.531    1.025891E-12
         4218.178    1.017237E-12
         4222.826    1.008713E-12
         4227.484    1.000247E-12
         4232.142    9.918761E-13
          4236.81    9.836009E-13
         4241.478    9.753801E-13
         4246.151    9.672922E-13
         4250.835    9.592103E-13
         4255.519    9.513063E-13
         4260.212    9.433768E-13
         4264.907    9.356354E-13
         4269.606    9.278687E-13
         4274.315    9.202742E-13
         4279.025    9.126801E-13
         4283.744    9.052190E-13
         4288.464    8.977830E-13
         4293.194    8.904562E-13
         4297.925    8.831799E-13
         4302.661    8.759917E-13
         4307.406    8.688613E-13
         4312.152    8.618046E-13
         4316.909    8.548265E-13
         4321.665    8.479029E-13
         4326.432    8.410796E-13
         4331.199    8.342884E-13
         4335.971    8.276162E-13
         4340.753    8.209428E-13
         4345.537    8.143991E-13
          4350.33    8.078399E-13
         4355.123    8.014280E-13
         4359.926    7.949896E-13
          4364.73    7.887186E-13
          4369.54    7.824304E-13
         4374.359    7.762636E-13
         4379.179    7.700993E-13
         4384.009    7.640452E-13
          4388.84    7.580057E-13
          4393.68    7.520600E-13
         4398.521    7.461379E-13
         4403.368    7.403157E-13
         4408.225    7.345211E-13
         4413.082    7.288048E-13
          4417.95    7.231164E-13
         4422.817    7.175042E-13
         4427.696    7.119325E-13
         4432.574    7.064222E-13
         4437.458    7.009591E-13
         4442.353    6.955461E-13
         4447.248    6.902004E-13
         4452.153    6.848892E-13
         4457.059    6.796405E-13
          4461.97    6.744311E-13
         4466.891    6.692840E-13
         4471.813    6.641746E-13
         4476.745    6.591276E-13
         4481.678    6.541152E-13
         4486.618    6.491710E-13
         4491.564    6.442505E-13
         4496.514    6.394031E-13
         4501.473    6.353150E-13
         4506.433    6.330336E-13
         4511.401    6.307294E-13
         4516.375    6.284532E-13
         4521.355    6.261589E-13
         4526.337    6.239092E-13
         4531.325    6.216369E-13
          4536.32    6.193929E-13
         4541.321    6.171287E-13
         4546.328    6.148994E-13
         4551.339    6.126537E-13
         4556.357    6.104503E-13
          4561.38    6.082262E-13
         4566.406    6.060301E-13
          4571.44    6.038163E-13
         4576.479    6.016338E-13
         4581.527    5.994355E-13
         4586.575    5.972684E-13
         4591.632    5.950883E-13
         4596.691    5.929373E-13
         4601.758    5.907756E-13
         4606.832    5.886368E-13
          4611.91    5.864924E-13
         4616.994    5.843690E-13
         4622.084    5.822395E-13
          4627.18    5.801216E-13
         4632.278    5.780103E-13
         4637.385    5.759152E-13
         4642.497    5.738266E-13
         4647.615    5.717475E-13
         4652.738    5.696772E-13
         4657.868    5.676096E-13
         4663.002    5.655519E-13
         4668.141    5.634908E-13
         4673.287    5.614540E-13
         4678.438    5.594140E-13
         4683.596    5.573996E-13
         4688.759    5.553742E-13
         4693.928    5.533716E-13
           4699.1    5.513510E-13
         4704.281    5.493733E-13
         4709.467    5.473747E-13
         4714.658    5.454089E-13
         4719.856    5.434134E-13
         4725.059    5.414745E-13
         4730.268    5.395052E-13
          4735.48    5.375750E-13
         4740.701    5.356193E-13
         4745.927    5.337071E-13
         4751.159    5.317754E-13
         4756.396    5.298665E-13
          4761.64    5.279508E-13
         4766.889    5.260625E-13
         4772.142    5.241729E-13
         4777.402    5.222950E-13
         4782.669    5.204201E-13
         4787.941    5.185473E-13
          4793.22    5.166931E-13
         4798.504    5.148387E-13
         4803.791    5.130091E-13
         4809.087    5.111681E-13
         4814.389    5.093488E-13
         4819.696    5.075086E-13
         4825.009    5.057147E-13
         4830.328    5.038984E-13
         4835.653    5.021211E-13
         4840.981    5.003264E-13
         4846.318    4.985587E-13
         4851.661    4.967798E-13
         4857.009    4.950138E-13
         4862.364    4.932524E-13
         4867.724    4.915053E-13
          4873.09    4.897673E-13
         4878.457    4.880303E-13
         4883.838    4.863118E-13
         4889.222    4.845854E-13
         4894.612    4.828860E-13
         4900.008    4.811675E-13
         4905.409    4.794956E-13
         4910.814    4.778043E-13
         4916.228    4.761335E-13
         4921.648    4.744539E-13
         4927.074    4.727916E-13
         4932.505    4.711310E-13
          4937.94    4.694782E-13
         4943.386    4.678403E-13
         4948.833    4.662033E-13
         4954.289    4.645886E-13
          4959.75    4.629608E-13
         4965.216    4.613580E-13
         4970.692    4.597387E-13
         4976.169    4.581551E-13
         4981.658    4.565616E-13
         4987.146    4.549853E-13
         4992.642    4.534111E-13
         4998.148    4.518401E-13
         5003.656    4.504909E-13
         5009.174    4.492365E-13
         5014.694    4.480036E-13
         5020.219    4.467532E-13
         5025.756    4.455341E-13
         5031.294    4.442995E-13
         5036.843    4.430740E-13
         5042.394    4.418484E-13
         5047.955    4.406290E-13
         5053.517    4.394134E-13
         5059.085    4.381881E-13
         5064.665    4.369854E-13
         5070.246    4.357693E-13
         5075.838    4.345760E-13
         5081.431    4.333690E-13
         5087.036    4.321685E-13
         5092.641    4.309708E-13
         5098.252    4.297778E-13
         5103.875    4.285932E-13
         5109.499    4.274000E-13
         5115.134    4.262276E-13
         5120.771    4.250427E-13
         5126.418    4.238749E-13
         5132.067    4.226989E-13
         5137.722    4.215257E-13
         5143.389    4.203584E-13
         5149.056    4.191891E-13
         5154.735    4.180366E-13
         5160.415    4.168729E-13
         5166.107    4.157280E-13
         5171.799    4.145757E-13
         5177.498    4.134322E-13
         5183.208    4.122861E-13
         5188.919    4.111346E-13
         5194.643    4.100012E-13
         5200.366    4.088585E-13
         5206.102    4.077319E-13
         5211.838    4.065995E-13
         5217.581    4.054775E-13
         5223.336    4.043544E-13
         5229.091    4.032266E-13
         5234.859    4.021120E-13
         5240.627    4.009884E-13
         5246.407    3.998814E-13
         5252.188    3.987728E-13
         5257.975    3.976734E-13
         5263.774    3.965701E-13
         5269.574    3.954569E-13
         5275.383    3.943665E-13
         5281.199    3.932677E-13
         5287.018    3.921828E-13
          5292.85    3.910927E-13
         5298.682    3.900007E-13
         5304.523    3.889188E-13
         5310.371    3.878291E-13
         5316.228    3.867627E-13
         5322.085    3.856865E-13
          5327.95    3.846071E-13
         5333.826    3.835372E-13
         5339.703    3.824649E-13
          5345.59    3.814102E-13
         5351.483    3.803456E-13
         5357.385    3.792837E-13
         5363.289    3.782256E-13
         5369.198    3.771660E-13
         5375.117    3.761137E-13
         5381.042    3.750549E-13
         5386.978    3.740133E-13
         5392.914    3.729680E-13
         5398.858    3.719184E-13
         5404.807    3.708820E-13
         5410.766    3.698390E-13
          5416.73    3.688084E-13
         5422.702    3.677731E-13
          5428.68    3.667361E-13
         5434.665    3.657093E-13
         5440.656    3.646763E-13
         5446.651    3.636567E-13
         5452.655    3.626323E-13
         5458.666    3.616072E-13
         5464.684    3.605904E-13
         5470.708    3.595671E-13
         5476.739    3.585508E-13
         5482.777    3.575331E-13
         5488.818    3.565173E-13
         5494.869    3.555111E-13
         5500.926    3.544865E-13
         5506.991    3.533988E-13
         5513.062    3.523116E-13
         5519.139    3.512243E-13
         5525.221    3.501505E-13
         5531.312    3.490707E-13
          5537.41    3.479943E-13
         5543.514    3.469175E-13
         5549.625    3.458366E-13
         5555.743    3.447747E-13
         5561.868    3.437073E-13
         5567.996    3.426418E-13
         5574.134    3.415830E-13
         5580.279    3.405214E-13
         5586.431    3.394652E-13
          5592.59    3.384067E-13
         5598.755    3.373506E-13
         5604.927    3.359503E-13
         5611.103    3.344631E-13
         5617.289    3.329903E-13
         5623.481    3.315206E-13
         5629.681    3.300514E-13
         5635.887    3.285990E-13
           5642.1    3.271494E-13
         5648.316    3.257114E-13
         5654.543    3.242830E-13
         5660.777    3.228566E-13
         5667.018    3.214450E-13
         5673.265    3.200366E-13
         5679.519    3.186302E-13
          5685.78    3.172391E-13
         5692.045    3.158515E-13
          5698.32    3.144729E-13
         5704.602    3.131045E-13
         5710.891    3.117385E-13
         5717.187    3.103855E-13
         5723.489    3.090388E-13
         5729.799    3.076956E-13
         5736.112    3.063677E-13
         5742.436    3.050396E-13
         5748.766    3.037157E-13
         5755.104    3.024078E-13
         5761.448    3.011039E-13
           5767.8    2.998114E-13
         5774.155    2.985228E-13
         5780.521    2.972344E-13
         5786.893    2.959662E-13
         5793.272    2.946980E-13
         5799.659    2.934294E-13
         5806.053    2.921823E-13
         5812.453    2.909355E-13
         5818.858    2.896914E-13
         5825.272    2.884640E-13
         5831.694    2.872385E-13
         5838.123    2.860168E-13
         5844.559    2.848072E-13
         5851.002    2.836009E-13
         5857.453    2.824005E-13
         5863.907    2.812096E-13
         5870.368    2.800238E-13
         5876.843    2.788496E-13
         5883.321    2.776794E-13
         5889.807    2.765123E-13
           5896.3    2.753594E-13
           5902.8    2.742086E-13
         5909.304    2.730624E-13
         5915.819    2.719287E-13
          5922.34    2.707976E-13
         5928.869    2.696718E-13
         5935.405    2.685578E-13
         5941.945    2.674477E-13
         5948.492    2.663455E-13
         5955.053    2.652487E-13
         5961.618    2.641562E-13
          5968.19    2.630757E-13
         5974.767    2.619988E-13
         5981.356    2.609231E-13
         5987.947    2.598610E-13
         5994.548    2.588038E-13
         6001.157    2.576888E-13
         6007.769    2.563015E-13
         6014.396    2.549258E-13
         6021.022    2.535596E-13
         6027.663    2.522027E-13
         6034.308    2.508553E-13
         6040.954    2.495155E-13
         6047.617    2.481863E-13
          6054.28    2.468693E-13
         6060.958    2.455575E-13
         6067.636    2.442536E-13
         6074.329    2.429610E-13
         6081.021    2.416777E-13
         6087.722    2.404041E-13
         6094.437    2.391374E-13
         6101.152    2.378779E-13
         6107.878    2.366285E-13
         6114.611    2.353874E-13
         6121.355    2.341515E-13
           6128.1    2.329256E-13
         6134.853    2.317087E-13
         6141.616    2.304983E-13
         6148.386    2.293008E-13
         6155.167    2.281073E-13
          6161.95    2.269190E-13
         6168.746    2.257374E-13
          6175.54    2.245685E-13
         6182.348    2.234035E-13
         6189.163    2.222440E-13
         6195.986    2.210955E-13
          6202.82    2.199522E-13
         6209.655    2.188164E-13
         6216.497    2.176865E-13
          6223.35    2.165632E-13
         6230.211    2.154471E-13
         6237.083    2.143366E-13
         6243.955    2.132355E-13
         6250.838    2.121405E-13
         6257.729    2.110513E-13
         6264.624    2.099665E-13
          6271.53    2.088858E-13
         6278.444    2.078160E-13
         6285.366    2.067506E-13
         6292.294    2.056897E-13
         6299.231    2.046356E-13
         6306.176    2.035895E-13
         6313.124    2.025471E-13
         6320.084    2.015070E-13
         6327.051    2.004773E-13
         6334.026    1.994523E-13
         6341.009    1.984315E-13
         6347.999    1.974158E-13
         6354.994    1.964072E-13
            6362.    1.954018E-13
         6369.013    1.943997E-13
         6376.034    1.934058E-13
         6383.063    1.924164E-13
           6390.1    1.914314E-13
         6397.145    1.904518E-13
         6404.193    1.894756E-13
         6411.253    1.885023E-13
         6418.321    1.875360E-13
         6425.397    1.865739E-13
          6432.48    1.856153E-13
         6439.571    1.846613E-13
          6446.67    1.837129E-13
         6453.774    1.827691E-13
         6460.889    1.818282E-13
         6468.011    1.808882E-13
         6475.142    1.799544E-13
          6482.28    1.790255E-13
         6489.426    1.781025E-13
         6496.576    1.771792E-13
         6503.738    1.761002E-13
         6510.908    1.748819E-13
         6518.085    1.736713E-13
         6525.271    1.724658E-13
         6532.465    1.712654E-13
         6539.666    1.700707E-13
         6546.872    1.688887E-13
         6554.089    1.677105E-13
         6561.314    1.665378E-13
         6568.548    1.653757E-13
         6575.789    1.642163E-13
         6583.038    1.630647E-13
         6590.295    1.619227E-13
         6597.557    1.607879E-13
          6604.83    1.596577E-13
         6612.111    1.585323E-13
           6619.4    1.574124E-13
         6626.698    1.563064E-13
         6634.003    1.552035E-13
         6641.316    1.541051E-13
         6648.634    1.530197E-13
         6655.964    1.519361E-13
         6663.301    1.508598E-13
         6670.647    1.497925E-13
         6678.001    1.487315E-13
         6685.363    1.476777E-13
         6692.729    1.466299E-13
         6700.107    1.455862E-13
         6707.494    1.445523E-13
         6714.888    1.435253E-13
         6722.291    1.425053E-13
         6729.701    1.414930E-13
          6737.12    1.404858E-13
         6744.543    1.394858E-13
         6751.979    1.384920E-13
         6759.422    1.375056E-13
         6766.874    1.365245E-13
         6774.333    1.355514E-13
         6781.802    1.345851E-13
         6789.278    1.336238E-13
         6796.759    1.326714E-13
         6804.251    1.317248E-13
         6811.752    1.307843E-13
         6819.262    1.298506E-13
          6826.78    1.289250E-13
         6834.306    1.280056E-13
         6841.836    1.270927E-13
         6849.378    1.261860E-13
         6856.929    1.252865E-13
         6864.488    1.243915E-13
         6872.056    1.235024E-13
         6879.632    1.226219E-13
         6887.216    1.217485E-13
         6894.805    1.208813E-13
         6902.405    1.200188E-13
         6910.015    1.191603E-13
         6917.632    1.183120E-13
         6925.258    1.174696E-13
         6932.893    1.166338E-13
         6940.536    1.158051E-13
         6948.183    1.149814E-13
         6955.839    1.141631E-13
         6963.511    1.133510E-13
         6971.188    1.125464E-13
         6978.873    1.117480E-13
         6986.566    1.109558E-13
         6994.261    1.101697E-13
         7001.975    1.093549E-13
         7009.694    1.084525E-13
         7017.422    1.075559E-13
         7025.158    1.066676E-13
         7032.902    1.057879E-13
         7040.652    1.049170E-13
          7048.41    1.040511E-13
         7056.184    1.031935E-13
         7063.962    1.023435E-13
          7071.75    1.015001E-13
         7079.542    1.006635E-13
          7087.35    9.983360E-14
          7095.16    9.901257E-14
         7102.981    9.819813E-14
         7110.812    9.738952E-14
         7118.647    9.658826E-14
         7126.499    9.579319E-14
         7134.351    9.500611E-14
          7142.22    9.422445E-14
         7150.089    9.344827E-14
         7157.968    9.268072E-14
         7165.863    9.191873E-14
         7173.758    9.116439E-14
         7181.671    9.041549E-14
         7189.584    8.967145E-14
         7197.514    8.893543E-14
         7205.444    8.820578E-14
         7213.384    8.748150E-14
          7221.34    8.676230E-14
         7229.297    8.605186E-14
         7237.271    8.534448E-14
         7245.245    8.464430E-14
         7253.236    8.394942E-14
         7261.228    8.326053E-14
         7269.229    8.257721E-14
         7277.243    8.190111E-14
         7285.265    8.122921E-14
           7293.3    8.056216E-14
         7301.336    7.990178E-14
         7309.381    7.924691E-14
         7317.439    7.859881E-14
         7325.506    7.795441E-14
         7333.586    7.731486E-14
         7341.667    7.668191E-14
         7349.764    7.605329E-14
         7357.863    7.543041E-14
          7365.97    7.481379E-14
          7374.09    7.420105E-14
         7382.219    7.359253E-14
         7390.362    7.298964E-14
         7398.505    7.239273E-14
         7406.661    7.180127E-14
         7414.826    7.121367E-14
         7422.996    7.063078E-14
         7431.184    7.005297E-14
         7439.372    6.948191E-14
         7447.573    6.891367E-14
         7455.783    6.835075E-14
         7464.002    6.779255E-14
         7472.231    6.723857E-14
         7480.464    6.668932E-14
          7488.71    6.614404E-14
         7496.966    6.560455E-14
         7505.231    6.507301E-14
         7513.505    6.454739E-14
         7521.788    6.402558E-14
         7530.076    6.350776E-14
         7538.377    6.299394E-14
         7546.688    6.248381E-14
         7555.007    6.197734E-14
         7563.335    6.147453E-14
         7571.673    6.097533E-14
         7580.021    6.047983E-14
         7588.373    5.998866E-14
         7596.738    5.950063E-14
         7605.113    5.901614E-14
         7613.497    5.853523E-14
          7621.89    5.805787E-14
         7630.292    5.758394E-14
         7638.704    5.711384E-14
         7647.121    5.664728E-14
         7655.551    5.618390E-14
         7663.991    5.572393E-14
         7672.439    5.526735E-14
         7680.897    5.481414E-14
         7689.365    5.436443E-14
         7697.838    5.391837E-14
         7706.324    5.347532E-14
         7714.819    5.303558E-14
         7723.324    5.259909E-14
         7731.838    5.216568E-14
         7740.362    5.173543E-14
         7748.895    5.130879E-14
         7757.434    5.088542E-14
         7765.985    5.046503E-14
         7774.546    5.004770E-14
         7783.117    4.963345E-14
         7791.697    4.922231E-14
         7800.287    4.881412E-14
         7808.886    4.840928E-14
          7817.49    4.800767E-14
         7826.108    4.760887E-14
         7834.736    4.721298E-14
         7843.373    4.682009E-14
          7852.02    4.643016E-14
         7860.676    4.604303E-14
         7869.337    4.565916E-14
         7878.013    4.527816E-14
         7886.697    4.490012E-14
         7895.392    4.452478E-14
         7904.096    4.415228E-14
         7912.809    4.378267E-14
         7921.532    4.341584E-14
         7930.261    4.305189E-14
         7939.003    4.269075E-14
         7947.755    4.233230E-14
         7956.517    4.197678E-14
         7965.288    4.162385E-14
         7974.069    4.127358E-14
          7982.86    4.092606E-14
         7991.656    4.058141E-14
         8000.466    4.023526E-14
         8009.286    3.982169E-14
         8018.115    3.941142E-14
         8026.954    3.900440E-14
         8035.803    3.860055E-14
         8044.658    3.820008E-14
         8053.526    3.780263E-14
         8062.404    3.740830E-14
         8071.292    3.701696E-14
          8080.19    3.662875E-14
         8089.098    3.624391E-14
         8098.016    3.586206E-14
         8106.938    3.548352E-14
         8115.875    3.510780E-14
         8124.822    3.473501E-14
         8133.779    3.436523E-14
         8142.746    3.399844E-14
         8151.723    3.363446E-14
         8160.709    3.327353E-14
         8169.701    3.291552E-14
         8178.708    3.256044E-14
         8187.724    3.220820E-14
          8196.75    3.185875E-14
         8205.786    3.151216E-14
         8214.832    3.116828E-14
         8223.884    3.082728E-14
          8232.95    3.048891E-14
         8242.026    3.015334E-14
         8251.112    2.982050E-14
         8260.208    2.949028E-14
         8269.314    2.916287E-14
         8278.431    2.883801E-14
         8287.552    2.851606E-14
         8296.688    2.819648E-14
         8305.835    2.787953E-14
         8314.991    2.756517E-14
         8324.153    2.725350E-14
         8333.334    2.694411E-14
         8342.521    2.663740E-14
         8351.713    2.635631E-14
          8360.92    2.617684E-14
         8370.138    2.599756E-14
         8379.365    2.581884E-14
         8388.603    2.564053E-14
          8397.85    2.546253E-14
         8407.104    2.528500E-14
         8416.371    2.510774E-14
         8425.649    2.493086E-14
         8434.934    2.475442E-14
         8444.236    2.457818E-14
         8453.546    2.440231E-14
         8462.865    2.422677E-14
         8472.189    2.405177E-14
         8481.525    2.387706E-14
          8490.88    2.370265E-14
          8500.24    2.352838E-14
         8509.611    2.334784E-14
         8518.987    2.316771E-14
         8528.384    2.298779E-14
          8537.78    2.280838E-14
         8547.188    2.262931E-14
         8556.615    2.245037E-14
         8566.043    2.227201E-14
         8575.486    2.209389E-14
          8584.94    2.191606E-14
         8594.409    2.173851E-14
         8603.879    2.156153E-14
         8613.359    2.138483E-14
         8622.854    2.120836E-14
          8632.36    2.103220E-14
         8641.882    2.085629E-14
         8651.403    2.068036E-14
         8660.937    2.050165E-14
         8670.484    2.032335E-14
         8680.043    2.014530E-14
         8689.611    1.996774E-14
         8699.191    1.979050E-14
         8708.781    1.961363E-14
         8718.382    1.943720E-14
         8727.988    1.926118E-14
          8737.61    1.908549E-14
         8747.242    1.891019E-14
         8756.886    1.873512E-14
         8766.539    1.856056E-14
         8776.203    1.838637E-14
         8785.879    1.821248E-14
          8795.56    1.803899E-14
         8805.256    1.786584E-14
         8814.963    1.769313E-14
         8824.681    1.752067E-14
         8834.408    1.734856E-14
         8844.147    1.717681E-14
         8853.893    1.700549E-14
         8863.653    1.683445E-14
         8873.425    1.666369E-14
         8883.207    1.649330E-14
            8893.    1.632325E-14
         8902.804    1.615356E-14
         8912.618    1.598422E-14
         8922.438    1.581525E-14
         8932.274    1.564655E-14
         8942.122    1.547818E-14
         8951.979    1.530956E-14
         8961.849    1.513923E-14
         8971.728    1.496925E-14
         8981.618    1.479970E-14
         8991.515    1.463054E-14
         9001.427    1.446245E-14
         9011.351    1.429920E-14
         9021.284    1.413644E-14
         9031.229    1.397398E-14
         9041.186    1.381188E-14
         9051.147    1.365017E-14
         9061.126    1.348882E-14
         9071.115    1.332779E-14
         9081.115    1.316704E-14
         9091.126    1.300671E-14
         9101.148    1.284678E-14
         9111.182    1.268717E-14
         9121.221    1.252791E-14
         9131.276    1.236896E-14
         9141.343    1.221032E-14
          9151.42    1.205203E-14
         9161.509    1.189410E-14
         9171.608    1.173644E-14
         9181.719    1.157919E-14
         9191.836    1.142226E-14
          9201.97    1.126564E-14
         9212.113    1.110937E-14
          9222.27    1.095329E-14
         9232.436    1.079766E-14
         9242.613    1.064232E-14
         9252.798    1.048688E-14
         9262.998    1.033052E-14
          9273.21    1.017453E-14
         9283.433    1.001887E-14
         9293.667    9.863593E-15
         9303.912    9.708703E-15
         9314.169    9.554121E-15
         9324.432    9.399965E-15
         9334.711    9.246125E-15
         9345.002    9.092601E-15
         9355.304    8.939426E-15
         9365.617    8.786617E-15
         9375.941    8.634151E-15
         9386.278    8.482026E-15
          9396.62    8.330273E-15
         9406.979    8.178785E-15
          9417.35    8.027671E-15
         9427.731    7.876907E-15
         9438.124    7.726424E-15
         9448.529    7.576285E-15
          9458.94    7.426538E-15
         9469.368    7.277049E-15
         9479.807    7.127925E-15
         9490.258    6.979036E-15
          9500.72    6.832125E-15
         9511.193    6.706665E-15
         9521.679    6.582272E-15
          9532.17    6.458866E-15
         9542.679    6.336371E-15
         9553.198    6.214860E-15
         9563.729    6.094300E-15
         9574.272    5.974700E-15
         9584.828    5.856042E-15
         9595.395    5.738344E-15
         9605.967    5.621656E-15
         9616.557    5.505873E-15
         9627.158    5.390985E-15
         9637.771    5.277059E-15
         9648.396    5.164027E-15
         9659.032    5.051935E-15
         9669.681    4.940748E-15
         9680.335    4.830547E-15
         9691.007    4.721166E-15
          9701.69    4.612750E-15
         9712.386    4.505186E-15
         9723.093    4.398536E-15
         9733.812    4.292785E-15
         9744.536    4.187978E-15
         9755.279    4.082857E-15
         9766.033    3.977546E-15
           9776.8    3.873207E-15
         9787.577    3.769836E-15
         9798.367    3.667442E-15
         9809.169    3.565982E-15
         9819.978    3.465568E-15
         9830.803    3.366044E-15
         9841.641    3.267466E-15
          9852.49    3.169834E-15
         9863.352    3.073165E-15
         9874.225    2.977420E-15
          9885.11    2.882614E-15
         9896.003    2.788771E-15
         9906.912    2.695811E-15
         9917.828    2.603809E-15
         9928.767    2.512654E-15
         9939.713    2.422449E-15
          9950.67    2.333149E-15
         9961.634    2.244812E-15
          9972.61    2.157364E-15
          9983.61    2.070744E-15
         9994.616    1.987896E-15
         10005.63    1.925144E-15
         10016.66    1.877745E-15
         10027.71    1.830692E-15
         10038.76    1.784079E-15
         10049.82    1.737856E-15
          10060.9    1.691987E-15
         10071.99    1.646555E-15
          10083.1    1.601476E-15
         10094.21    1.556843E-15
         10105.34    1.512568E-15
         10116.47    1.468737E-15
         10127.62    1.425308E-15
         10138.79    1.382245E-15
         10149.96    1.339630E-15
         10161.16    1.297384E-15
         10172.35    1.255588E-15
         10183.56    1.214202E-15
         10194.79    1.173192E-15
         10206.03    1.132635E-15
         10217.29    1.092455E-15
         10228.54    1.052734E-15
         10239.83    1.013390E-15
         10251.11    9.745111E-16
          10262.4    9.360502E-16
         10273.72    8.979803E-16
         10285.04    8.603715E-16
         10296.39    8.231547E-16
         10307.73    7.864014E-16
          10319.1    7.500437E-16
         10330.47    7.141559E-16
         10341.85    6.787012E-16
         10353.26    6.436490E-16
         10364.67    6.090668E-16
          10376.1    5.748909E-16
         10387.53    5.411906E-16
         10398.99    5.078984E-16
         10410.45    4.750839E-16
         10421.92    4.427118E-16
         10433.41    4.107599E-16
         10444.91    3.792869E-16
         10456.43    3.482329E-16
         10467.95    3.176628E-16
          10479.5    2.875162E-16
         10491.04    2.578562E-16
          10502.6    2.337662E-16
         10514.19    2.274876E-16
         10525.77    2.212846E-16
         10537.38    2.151450E-16
         10548.99    2.090808E-16
         10560.63    2.030812E-16
         10572.26    1.971573E-16
         10583.91    1.913046E-16
         10595.59    1.855165E-16
         10607.26    1.798053E-16
         10618.96    1.741598E-16
         10630.66    1.685914E-16
         10642.38    1.630952E-16
         10654.11    1.576655E-16
         10665.85    1.523137E-16
         10677.62    1.470290E-16
         10689.38    1.418231E-16
         10701.17    1.366850E-16
         10712.96    1.316256E-16
         10724.77    1.266398E-16
          10736.6    1.217233E-16
         10748.43    1.168861E-16
         10760.27    1.121236E-16
         10772.14    1.074312E-16
         10784.01    1.028187E-16
          10795.9    9.827702E-17
         10807.81    9.381132E-17
         10819.72    8.942580E-17
         10831.65    8.511262E-17
         10843.57    8.088446E-17
         10855.53    7.672475E-17
         10867.51    7.264215E-17
         10879.48    6.864117E-17
         10891.48    6.471427E-17
         10903.48    6.086906E-17
          10915.5    5.710198E-17
         10927.52    5.341365E-17
         10939.58    4.980084E-17
         10951.64    4.626696E-17
         10963.71    4.281617E-17
         10975.79    3.944527E-17
         10987.88    3.615429E-17
           11000.    3.294121E-17
