#  Table wf3f336wsys.tab  Mon 12:22:13 02-Jun-97

#      WAVELENGTH      THROUGHPUT
#       angstroms                

            2890.    4.698867E-10
         2891.934     3.742355E-9
         2893.866     2.164941E-8
         2895.804     5.202503E-8
         2897.742     1.054521E-7
         2899.679     2.573481E-7
         2901.618     5.108113E-7
         2903.559     7.840376E-7
         2905.501     1.056952E-6
         2907.445     1.329553E-6
         2909.389     1.601771E-6
         2911.335     3.155810E-6
         2913.283     5.293831E-6
         2915.233     7.431165E-6
         2917.181     9.561917E-6
         2919.133     1.169169E-5
         2921.083     1.635696E-5
         2923.039     2.306033E-5
         2924.996     2.975452E-5
         2926.951     3.642865E-5
         2928.908     4.309938E-5
         2930.867     5.400041E-5
         2932.826     7.020882E-5
          2934.79     8.641835E-5
         2936.753     1.025946E-4
         2938.717     1.187475E-4
         2940.683     1.213437E-4
          2942.65     1.119525E-4
         2944.616     1.321798E-4
         2946.587     1.578407E-4
         2948.558     1.852423E-4
         2950.529     2.157709E-4
         2952.504     2.475004E-4
         2954.479     2.832071E-4
         2956.455     3.215297E-4
         2958.433     3.627213E-4
         2960.412     4.073155E-4
          2962.39     4.558228E-4
         2964.373     5.096163E-4
         2966.358     5.645623E-4
          2968.34     6.255829E-4
         2970.326     6.885470E-4
         2972.313     7.552231E-4
         2974.299     8.268011E-4
          2976.29     9.012731E-4
         2978.279     9.802229E-4
         2980.273      0.00106439
         2982.266     0.001152703
          2984.26     0.001244346
         2986.257     0.001339706
         2988.255     0.001439124
         2990.252      0.00154139
         2992.254     0.001648168
         2994.255     0.001753365
         2996.258      0.00186189
         2998.262     0.001972471
         3000.268     0.002087815
         3002.273     0.002204225
         3004.281     0.002320053
         3006.292      0.00243876
         3008.303     0.002561332
         3010.315     0.002685985
         3012.329     0.002813668
         3014.342     0.002938801
         3016.358     0.003066707
         3018.377     0.003202758
         3020.396     0.003344485
         3022.417     0.003487537
         3024.438     0.003637326
         3026.459     0.003797812
         3028.485     0.003962887
         3030.511      0.00413069
         3032.537     0.004306494
         3034.567     0.004500603
         3036.595     0.004711142
         3038.627     0.004934292
          3040.66     0.005168526
         3042.692     0.005413976
         3044.727     0.005672392
         3046.764     0.005955435
         3048.803     0.006264803
         3050.843     0.006598151
         3052.883     0.006954399
         3054.924      0.00733156
         3056.967     0.007733057
         3059.013     0.008167626
         3061.058     0.008634098
         3063.107     0.009132913
         3065.156     0.009665303
         3067.205      0.01022843
         3069.258      0.01082532
         3071.311      0.01145619
         3073.364      0.01211271
         3075.419      0.01279123
         3077.478      0.01348982
         3079.536      0.01420435
         3081.596      0.01493599
         3083.657      0.01567977
         3085.718      0.01641389
         3087.782      0.01713078
         3089.849      0.01783466
         3091.916      0.01850847
         3093.984      0.01915208
         3096.054      0.01975758
         3098.123      0.02031898
         3100.197      0.02083403
         3102.269      0.02134831
         3104.344      0.02181036
         3106.422       0.0222193
         3108.498      0.02258158
         3110.579      0.02289901
          3112.66      0.02317612
          3114.74      0.02342169
         3116.823      0.02364288
          3118.91      0.02384104
         3120.996      0.02400629
         3123.083      0.02414107
         3125.173      0.02426168
         3127.261      0.02438683
         3129.353      0.02452238
         3131.448      0.02465962
         3133.541      0.02479078
         3135.638      0.02490674
         3137.736      0.02502585
         3139.833      0.02517052
         3141.935      0.02532012
         3144.036      0.02546366
         3146.137      0.02561229
         3148.244      0.02579658
         3150.349      0.02598028
         3152.455      0.02614515
         3154.565      0.02631979
         3156.674      0.02650819
         3158.785      0.02671011
         3160.898      0.02692457
         3163.012        0.027139
         3165.129      0.02735722
         3167.247      0.02756964
         3169.363      0.02776352
         3171.483      0.02795641
         3173.605      0.02816367
         3175.727      0.02836595
         3177.852      0.02853122
         3179.979      0.02870166
         3182.104      0.02887603
         3184.233       0.0290417
         3186.363       0.0292016
         3188.494      0.02933554
         3190.626      0.02945936
         3192.762      0.02959285
         3194.896      0.02972201
         3197.033      0.02983526
         3199.173       0.0299425
         3201.312      0.03005619
         3203.453      0.03016819
         3205.594      0.03026332
          3207.74      0.03034911
         3209.887      0.03043231
         3212.034      0.03051292
         3214.181      0.03058548
         3216.331      0.03066489
          3218.48      0.03074032
         3220.635      0.03081149
         3222.791       0.0308811
         3224.945      0.03096036
         3227.102      0.03103806
          3229.26      0.03109231
          3231.42      0.03115502
         3233.582       0.0312406
         3235.745      0.03132882
         3237.909      0.03140249
         3240.075      0.03146394
         3242.244      0.03152872
         3244.411       0.0316143
         3246.581      0.03170044
         3248.752      0.03176975
         3250.925      0.03183715
         3253.102      0.03191883
         3255.278      0.03200227
         3257.453      0.03205007
         3259.632      0.03208249
         3261.811      0.03212044
         3263.994      0.03216168
         3266.177      0.03220372
         3268.364      0.03222977
         3270.548       0.0322777
         3272.736       0.0323322
         3274.925      0.03237237
         3277.115      0.03239297
         3279.307      0.03241056
         3281.499       0.0324384
         3283.696      0.03247106
         3285.894      0.03249444
          3288.09      0.03249725
         3290.289      0.03251961
          3292.49       0.0325451
         3294.691      0.03256501
         3296.896      0.03257271
         3299.103      0.03256043
         3301.308      0.03254049
         3303.516      0.03253477
         3305.724      0.03254898
         3307.937      0.03255603
          3310.15      0.03256076
         3312.364      0.03255752
         3314.579       0.0325599
         3316.796      0.03255962
         3319.017      0.03254936
         3321.235      0.03254201
         3323.457      0.03253564
         3325.678      0.03252789
         3327.904      0.03251984
         3330.132      0.03252188
         3332.359      0.03253472
         3334.586      0.03254582
         3336.817      0.03254931
         3339.047      0.03255459
         3341.282       0.0325577
         3343.517      0.03256511
         3345.753      0.03259349
         3347.991      0.03261014
         3350.231      0.03261556
          3352.47      0.03263962
         3354.714      0.03266998
         3356.958      0.03269454
         3359.203      0.03271771
          3361.45      0.03273945
         3363.699      0.03276916
         3365.948      0.03281444
           3368.2       0.0328633
         3370.453      0.03290359
         3372.706      0.03293887
         3374.963      0.03298372
         3377.223      0.03303996
          3379.48      0.03308957
          3381.74      0.03315309
         3384.002      0.03322607
         3386.264      0.03327344
         3388.529      0.03333797
         3390.799      0.03341752
         3393.065      0.03350934
         3395.335      0.03360298
         3397.604      0.03366925
         3399.876      0.03370481
         3402.153      0.03377827
         3404.426      0.03387165
         3406.705        0.033978
         3408.984      0.03407345
         3411.262      0.03417424
         3413.546      0.03428335
         3415.827      0.03438888
         3418.112      0.03448327
         3420.398      0.03458386
         3422.688      0.03468188
         3424.978      0.03477279
         3427.268      0.03486526
         3429.561      0.03496056
         3431.853      0.03505713
         3434.148      0.03514591
         3436.445        0.035224
         3438.746       0.0352951
         3441.046       0.0353623
         3443.346      0.03542727
         3445.649      0.03548119
         3447.956      0.03552664
          3450.26      0.03555131
         3452.568      0.03556953
         3454.879      0.03557537
         3457.188      0.03556824
         3459.502      0.03554856
         3461.816      0.03550565
          3464.13      0.03545639
         3466.447      0.03540203
         3468.768      0.03532925
          3471.09      0.03523894
         3473.409      0.03512827
         3475.733      0.03498699
         3478.056      0.03483428
         3480.382      0.03466893
         3482.712      0.03448379
          3485.04      0.03427333
         3487.373      0.03404988
         3489.703      0.03380788
         3492.038      0.03354475
         3494.375      0.03326278
         3496.711      0.03296075
          3499.05      0.03263906
         3501.392      0.03230026
         3503.734      0.03195173
         3506.077      0.03158168
         3508.423      0.03119464
         3510.767      0.03080193
         3513.116      0.03039614
         3515.466      0.02998021
         3517.817      0.02955483
         3520.172      0.02912786
         3522.526      0.02869372
         3524.881      0.02823773
         3527.238      0.02778112
           3529.6      0.02732573
         3531.958      0.02686704
         3534.321      0.02640662
         3536.687      0.02593842
         3539.051      0.02546807
          3541.42      0.02502435
         3543.789      0.02457821
         3546.157      0.02410497
         3548.529      0.02363052
         3550.905      0.02317397
          3553.28      0.02271955
         3555.656      0.02225551
         3558.035       0.0217897
         3560.413      0.02132812
         3562.794       0.0208663
         3565.177      0.02041048
         3567.562      0.01995146
          3569.95      0.01949356
         3572.336      0.01905242
         3574.725      0.01861122
         3577.118      0.01816178
         3579.509      0.01772112
         3581.903      0.01728376
         3584.301      0.01684545
         3586.697      0.01640746
         3589.096      0.01597306
         3591.496      0.01554525
         3593.899      0.01511796
         3596.302      0.01469241
         3598.708      0.01427817
         3601.115      0.01386533
         3603.524      0.01345195
         3605.936      0.01303627
         3608.346      0.01262432
          3610.76      0.01221773
         3613.175      0.01181438
         3615.592      0.01141164
         3618.012      0.01102065
          3620.43      0.01063618
         3622.852      0.01025615
         3625.275     0.009884015
           3627.7     0.009517182
         3630.126     0.009156553
         3632.554     0.008810039
         3634.986     0.008472164
         3637.416     0.008142554
         3639.849      0.00782103
         3642.283     0.007508414
         3644.719     0.007207651
         3647.157       0.0069159
         3649.597      0.00662942
         3652.038     0.006353985
         3654.483     0.006090885
         3656.925     0.005832124
         3659.371     0.005581222
         3661.819     0.005340341
         3664.268     0.005107199
         3666.719      0.00488277
         3669.174     0.004666685
         3671.626     0.004461631
         3674.082     0.004261151
         3676.539      0.00406905
         3678.999     0.003886314
         3681.459     0.003710489
         3683.922     0.003552368
         3686.386     0.003394689
         3688.852     0.003240206
         3691.321     0.003093948
         3693.788     0.002953765
         3696.259     0.002822976
         3698.731     0.002698154
         3701.205     0.002578368
         3703.683     0.002460475
         3706.158     0.002351568
         3708.637     0.002244712
         3711.118     0.002142589
           3713.6      0.00204624
         3716.084     0.001954241
          3718.57     0.001866945
         3721.057      0.00178295
         3723.546     0.001703889
         3726.036      0.00162568
         3728.529     0.001550677
         3731.023     0.001479551
         3733.518     0.001409931
         3736.016     0.001345434
         3738.514     0.001284103
         3741.017     0.001225459
         3743.517     0.001168268
         3746.021     0.001110826
         3748.527     0.001053188
         3751.034     0.001001584
         3753.543     9.586983E-4
         3756.054     9.156579E-4
         3758.566     8.724663E-4
          3761.08     8.296886E-4
         3763.596     7.875044E-4
         3766.114     7.451765E-4
         3768.633     7.027009E-4
         3771.155     6.651566E-4
         3773.676     6.335932E-4
           3776.2     6.018945E-4
         3778.726     5.700846E-4
         3781.253     5.387649E-4
         3783.782     5.079429E-4
         3786.313     4.770165E-4
         3788.846     4.459796E-4
         3791.382     4.194221E-4
         3793.916     3.966677E-4
         3796.454     3.738167E-4
         3798.993     3.508865E-4
         3801.534     3.286576E-4
         3804.077     3.068683E-4
         3806.622     2.850032E-4
         3809.168     2.630624E-4
         3811.716     2.454357E-4
         3814.265     2.298824E-4
         3816.816     2.142752E-4
         3819.367     1.986261E-4
         3821.924     1.840076E-4
          3824.48     1.697151E-4
         3827.039     1.553721E-4
         3829.599     1.409813E-4
          3832.16     1.304478E-4
         3834.723     1.206056E-4
         3837.288     1.107296E-4
         3839.853     1.008282E-4
         3842.423     9.219775E-5
         3844.993     8.362553E-5
         3847.565     7.502317E-5
         3850.139     6.656362E-5
         3852.714     6.108507E-5
         3855.289     5.559202E-5
          3857.87     5.007140E-5
          3860.45     4.472430E-5
         3863.032     4.025093E-5
         3865.616     3.576201E-5
         3868.202     3.125791E-5
         3870.787     2.730367E-5
         3873.379     2.461559E-5
         3875.969     2.192073E-5
         3878.562     1.921675E-5
         3881.156     1.682173E-5
         3883.752     1.481502E-5
          3886.35     1.280139E-5
         3888.949     1.078119E-5
         3891.551     9.312693E-6
         3894.154     8.218472E-6
         3896.759     7.120585E-6
         3899.365     6.019020E-6
         3901.973     5.194482E-6
         3904.583     4.457714E-6
         3907.193     3.719048E-6
         3909.806     2.977304E-6
         3912.423     2.594902E-6
          3915.04     2.240543E-6
         3917.659     1.884979E-6
          3920.28     1.542868E-6
           3922.9     1.322259E-6
         3925.526     1.100574E-6
         3928.151     8.783264E-7
         3930.777     6.963033E-7
         3933.408     6.107707E-7
         3936.039     5.250208E-7
         3938.672     4.389894E-7
         3941.306     3.699116E-7
         3943.943     3.181508E-7
         3946.578     2.662701E-7
          3949.22     2.141346E-7
         3951.862     1.865563E-7
         3954.505     1.692486E-7
          3957.15     1.518830E-7
         3959.795     1.344772E-7
         3962.444     1.169969E-7
         3965.096     9.944586E-8
         3967.746     8.186792E-8
         3970.402     6.689440E-8
         3973.058     6.697904E-8
         3975.716     6.706379E-8
         3978.375     6.714865E-8
         3981.036     6.723333E-8
         3983.697     6.731758E-8
         3986.363     6.740206E-8
          3989.03     6.748662E-8
         3991.698     6.757045E-8
         3994.368     6.765394E-8
          3997.04     6.773752E-8
         3999.711     6.782116E-8
         4002.386     6.782275E-8
         4005.066     6.781436E-8
         4007.745     6.780592E-8
         4010.425     6.779737E-8
         4013.108     6.778813E-8
          4015.79     6.777886E-8
         4018.478     6.776956E-8
         4021.164     6.775987E-8
         4023.856     6.774971E-8
         4026.547     6.773951E-8
          4029.24     6.772928E-8
         4031.936     6.771851E-8
          4034.63     6.770748E-8
         4037.329     6.769640E-8
         4040.029     6.768531E-8
         4042.734     6.767341E-8
         4045.438     6.766150E-8
         4048.142     6.764957E-8
         4050.852     6.763733E-8
         4053.561     6.762455E-8
          4056.27     6.761175E-8
         4058.986     6.759888E-8
         4061.701     6.758556E-8
         4064.417     6.757193E-8
         4067.136     6.755827E-8
         4069.856     6.754458E-8
         4072.579     6.753011E-8
         4075.298     6.751560E-8
         4078.029     6.750101E-8
         4080.756     6.748621E-8
         4083.486     6.747087E-8
         4086.217     6.745550E-8
         4088.948     6.744010E-8
         4091.685     6.742454E-8
          4094.42     6.740893E-8
         4097.159     6.739327E-8
         4099.901     6.737757E-8
         4102.642     6.736058E-8
         4105.388     6.734349E-8
         4108.134     6.732640E-8
         4110.879     6.730922E-8
         4113.631     6.729190E-8
         4116.383     6.727456E-8
         4119.136     6.725718E-8
         4121.892     6.723890E-8
         4124.648     6.722021E-8
         4127.408     6.720146E-8
         4130.164     6.718268E-8
         4132.931     6.716368E-8
         4135.693     6.714468E-8
         4138.461     6.712562E-8
          4141.23     6.710648E-8
         4143.998     6.708725E-8
         4146.771     6.706797E-8
         4149.543     6.704869E-8
         4152.318     6.702827E-8
         4155.098     6.700757E-8
         4157.875     6.698689E-8
         4160.659     6.696611E-8
         4163.441     6.694524E-8
         4166.224     6.692436E-8
         4169.011     6.690345E-8
         4171.797     6.688201E-8
          4174.59     6.686026E-8
         4177.384     6.683848E-8
         4180.179     6.681667E-8
         4182.975     6.679474E-8
         4185.768     6.677281E-8
         4188.572     6.675078E-8
         4191.372     6.672845E-8
         4194.178     6.670567E-8
         4196.983     6.668289E-8
         4199.788     6.666009E-8
         4202.599     6.669902E-8
         4205.406     6.674293E-8
         4208.221     6.678697E-8
         4211.036     6.683099E-8
         4213.853     6.687500E-8
         4216.673     6.691905E-8
         4219.492     6.696312E-8
         4222.314     6.700665E-8
         4225.138     6.705009E-8
         4227.962     6.709355E-8
         4230.792     6.713708E-8
         4233.622     6.718057E-8
         4236.456     6.722411E-8
          4239.29     6.726768E-8
         4242.121     6.731071E-8
         4244.963     6.735373E-8
         4247.797     6.739668E-8
         4250.639     6.743969E-8
         4253.487     6.748277E-8
          4256.33     6.752577E-8
         4259.179     6.756888E-8
         4262.023     6.761142E-8
         4264.876     6.765387E-8
         4267.729     6.769636E-8
         4270.581     6.773881E-8
          4273.44     6.778134E-8
         4276.298     6.782388E-8
         4279.159     6.786644E-8
         4282.021     5.418426E-8
         4284.885     3.475496E-8
         4287.751     1.529167E-8
         4290.619     4.212292E-9
         4293.491     2.376692E-8
         4296.363     4.334567E-8
         4299.234     6.294187E-8
         4302.113     6.820201E-8
         4304.985     6.824338E-8
         4307.865     6.828486E-8
         4310.747     6.832636E-8
         4313.635     6.836788E-8
          4316.52     6.840940E-8
         4319.402     6.845085E-8
         4322.296     6.849243E-8
         4325.185     6.853393E-8
         4328.076     6.857547E-8
         4330.973     6.193964E-8
          4333.87     4.208693E-8
         4336.771     2.218333E-8
         4339.669     2.272374E-9
         4342.572     1.769278E-8
         4345.479     3.771200E-8
         4348.381     5.771470E-8
         4351.292     6.890571E-8
         4354.205     6.894619E-8
         4357.115     6.898664E-8
         4360.032     6.880811E-8
         4362.943     4.873894E-8
         4365.864     2.858521E-8
         4368.782     8.424335E-9
         4371.709              0.
         4374.633              0.
         4377.554              0.
         4380.487     3.377658E-9
         4383.415     2.368114E-8
         4386.344     4.402532E-8
         4389.278     6.442387E-8
         4392.217     6.947504E-8
         4395.157     6.951508E-8
         4398.094     6.955509E-8
         4401.036     6.621521E-8
          4403.98     5.664459E-8
         4406.923     4.706432E-8
         4409.873     3.745213E-8
          4412.82     3.673613E-8
         4415.774     3.641938E-8
         4418.728     3.610229E-8
         4421.681     3.578487E-8
         4424.642     3.546627E-8
         4427.599     3.514764E-8
          4430.56     3.482810E-8
         4433.528     3.450714E-8
         4436.489     3.418659E-8
         4439.461     3.386445E-8
         4442.428     3.354272E-8
         4445.397     3.322038E-8
         4448.371     3.289718E-8
         4451.346     3.257329E-8
         4454.324     3.224856E-8
         4457.303     3.192325E-8
         4460.287     3.159706E-8
         4463.271     3.127053E-8
         4466.253     3.094366E-8
         4469.243     3.061566E-8
         4472.232     3.028729E-8
         4475.224     2.995825E-8
         4478.217     2.962867E-8
          4481.21     2.929870E-8
          4484.21     2.896764E-8
         4487.207     2.863646E-8
         4490.208     2.830441E-8
         4493.212     2.797172E-8
         4496.217     2.763843E-8
         4499.229     2.730398E-8
         4502.234     2.723847E-8
         4505.246     2.726530E-8
         4508.259     2.729184E-8
         4511.274     2.731800E-8
         4514.292     2.734374E-8
         4517.312     2.736919E-8
         4520.335     2.739440E-8
         4523.359     2.741948E-8
         4526.382     2.744426E-8
         4529.413     2.746878E-8
         4532.439     2.749280E-8
         4535.471     2.751650E-8
         4538.507     2.753994E-8
         4541.543     2.756306E-8
         4544.581     2.758586E-8
         4547.618     2.760838E-8
          4550.66     2.763066E-8
         4553.704     2.765281E-8
          4556.75     2.767468E-8
         4559.803     2.769627E-8
         4562.848     2.771730E-8
         4565.899     2.773804E-8
         4568.954     2.775850E-8
          4572.01     2.777865E-8
         4575.068     2.779848E-8
         4578.128     2.781801E-8
         4581.193     2.783727E-8
         4584.257     2.785620E-8
         4587.321     2.787482E-8
         4590.392     2.789316E-8
         4593.459     2.791113E-8
         4596.532     2.792883E-8
         4599.606     2.794622E-8
         4602.686     2.790642E-8
         4605.764     2.785765E-8
         4608.842     2.780821E-8
         4611.928     2.775795E-8
          4615.01     2.770706E-8
         4618.097     2.765542E-8
         4621.186     2.760295E-8
         4624.277     2.754960E-8
         4627.373     2.749550E-8
         4630.465     2.744080E-8
         4633.563     2.738557E-8
         4636.662     2.732962E-8
         4639.763     2.727295E-8
         4642.867     2.721552E-8
         4645.975     2.715731E-8
          4649.08     2.709847E-8
         4652.192     2.703879E-8
         4655.301     2.697846E-8
         4658.415     2.691736E-8
         4661.531     2.685541E-8
         4664.651     2.679256E-8
         4667.771     2.672902E-8
         4670.891     2.666485E-8
         4674.018     2.660000E-8
         4677.142     2.653452E-8
          4680.27     2.646823E-8
         4683.401     2.640121E-8
         4686.533     2.633345E-8
          4689.67     2.626488E-8
         4692.805     2.619542E-8
         4695.944     2.612512E-8
         4699.085     2.605405E-8
         4702.228     2.599085E-8
         4705.373     2.593048E-8
         4708.523     2.586936E-8
          4711.67     2.580753E-8
         4714.821     2.574485E-8
         4717.975     2.568146E-8
         4721.131     2.561747E-8
         4724.289     2.555295E-8
         4727.449     2.548773E-8
         4730.613     2.542171E-8
         4733.775     2.535488E-8
         4736.944     2.528723E-8
          4740.11     2.521901E-8
          4743.28     2.515024E-8
         4746.453     2.508076E-8
         4749.628     2.501058E-8
         4752.805     2.493950E-8
         4755.984     2.486767E-8
         4759.165     2.479514E-8
         4762.348     2.472204E-8
         4765.534     2.464827E-8
         4768.721     2.457379E-8
         4771.911     2.449858E-8
         4775.103     2.442267E-8
         4778.297     2.434603E-8
         4781.493     2.426855E-8
         4784.691     2.419021E-8
         4787.892     2.411116E-8
         4791.094     2.403145E-8
         4794.299     2.395119E-8
         4797.505     2.387021E-8
         4800.717     2.377504E-8
         4803.926     2.363267E-8
         4807.139     2.348912E-8
         4810.354     2.334447E-8
         4813.572     2.319856E-8
         4816.792     2.305157E-8
         4820.014     2.290348E-8
         4823.237     2.275456E-8
         4826.463     2.260454E-8
         4829.692     2.245342E-8
         4832.922     2.230125E-8
         4836.155     2.214797E-8
          4839.39     2.199362E-8
         4842.627     2.183813E-8
         4845.866     2.168155E-8
         4849.107     2.152387E-8
         4852.351     2.136494E-8
         4855.596     2.120483E-8
         4858.844     2.104360E-8
         4862.094     2.088143E-8
         4865.349     2.071811E-8
         4868.601     2.055396E-8
         4871.857     2.038850E-8
         4875.116     2.022193E-8
         4878.377     2.005421E-8
          4881.64     1.988541E-8
         4884.905     1.971544E-8
         4888.175     1.954423E-8
         4891.442     1.937219E-8
         4894.714     1.919886E-8
         4897.988     1.902441E-8
         4901.264     1.890557E-8
         4904.542     1.887651E-8
         4907.823     1.884710E-8
         4911.105     1.881727E-8
         4914.391     1.878699E-8
         4917.678     1.875635E-8
         4920.967     1.872534E-8
         4924.259     1.869398E-8
         4927.552     1.866226E-8
         4930.848     1.863017E-8
         4934.146     1.859772E-8
         4937.447     1.856490E-8
          4940.75     1.853176E-8
         4944.054     1.849841E-8
         4947.361     1.846469E-8
         4950.667     1.843063E-8
         4953.981     1.839615E-8
         4957.295     1.836131E-8
         4960.611     1.832609E-8
         4963.929     1.829033E-8
          4967.25     1.825421E-8
         4970.572     1.821774E-8
         4973.896     1.818103E-8
         4977.224     1.814394E-8
         4980.553     1.810649E-8
         4983.884     1.806868E-8
         4987.218     1.803050E-8
         4990.554     1.799194E-8
         4993.892     1.795300E-8
         4997.232     1.791369E-8
         5000.575     1.789771E-8
         5003.919     1.799600E-8
         5007.267     1.809465E-8
         5010.616     1.819364E-8
         5013.967     1.829294E-8
         5017.318     1.839251E-8
         5020.677     1.849261E-8
         5024.035     1.859317E-8
         5027.396     1.869407E-8
         5030.758     1.879529E-8
         5034.123     1.889670E-8
         5037.491     1.899848E-8
         5040.857     1.910055E-8
         5044.232     1.920325E-8
         5047.605     1.930621E-8
         5050.982     1.940949E-8
          5054.36     1.951300E-8
         5057.741     1.961687E-8
         5061.124     1.972113E-8
         5064.509     1.982588E-8
         5067.894     1.993088E-8
         5071.287     2.003645E-8
         5074.679     2.014230E-8
         5078.073     2.024850E-8
          5081.47     2.035495E-8
         5084.866     2.046154E-8
          5088.27     2.056865E-8
         5091.673     2.067616E-8
         5095.079     2.078417E-8
         5098.487     2.089254E-8
         5101.897     2.101058E-8
          5105.31     2.113648E-8
         5108.725     2.126283E-8
         5112.142     2.138969E-8
         5115.562     2.151702E-8
         5118.983     2.164481E-8
         5122.407     2.177305E-8
         5125.833     2.190172E-8
         5129.262     2.203086E-8
         5132.693     2.216034E-8
         5136.126     2.229023E-8
         5139.562     2.242060E-8
         5142.996     2.255147E-8
         5146.439     2.268307E-8
         5149.881     2.281503E-8
         5153.326     2.294752E-8
         5156.773     2.308047E-8
         5160.222     2.321390E-8
         5163.674     2.334775E-8
         5167.128     2.348210E-8
         5170.584     2.361692E-8
         5174.042     2.375225E-8
           5177.5     2.388796E-8
         5180.966     2.402428E-8
         5184.432     2.416078E-8
           5187.9     2.429774E-8
          5191.37     2.443526E-8
         5194.842     2.457344E-8
         5198.317     2.471209E-8
         5201.794     2.475685E-8
         5205.273     2.471276E-8
         5208.755     2.466816E-8
         5212.236     2.462321E-8
         5215.726     2.457776E-8
         5219.214     2.453182E-8
         5222.705     2.448518E-8
         5226.199     2.443795E-8
         5229.694     2.439020E-8
         5233.192     2.434190E-8
         5236.692     2.429310E-8
         5240.195     2.424374E-8
           5243.7     2.419386E-8
         5247.205     2.414347E-8
         5250.718     2.409254E-8
         5254.229     2.404131E-8
         5257.744     2.398955E-8
         5261.261     2.393707E-8
         5264.777     2.388375E-8
         5268.302     2.382981E-8
         5271.825     2.377552E-8
         5275.352     2.372080E-8
          5278.88     2.366554E-8
         5282.408     2.360980E-8
         5285.944     2.355341E-8
          5289.48     2.349652E-8
         5293.018     2.343887E-8
         5296.559     2.338062E-8
         5300.099     2.332001E-8
         5303.646     2.319298E-8
         5307.194     2.306515E-8
         5310.744     2.293645E-8
         5314.293     2.280714E-8
         5317.848     2.267682E-8
         5321.408     2.254528E-8
         5324.967     2.241268E-8
         5328.529     2.227917E-8
         5332.093     2.214486E-8
         5335.657     2.200980E-8
         5339.229     2.187360E-8
           5342.8     2.173659E-8
         5346.374     2.159866E-8
         5349.947     2.145991E-8
         5353.525     2.131994E-8
         5357.109     2.117891E-8
         5360.689     2.103719E-8
         5364.275     2.089436E-8
         5367.866     2.075049E-8
         5371.454     2.060584E-8
         5375.049     2.045992E-8
         5378.642     2.031331E-8
         5382.242     2.016561E-8
         5385.839     2.001727E-8
         5389.442     1.986786E-8
          5393.05     1.971720E-8
         5396.654     1.956581E-8
         5400.264     1.941746E-8
         5403.879     1.932056E-8
          5407.49     1.922316E-8
          5411.11     1.912492E-8
         5414.727     1.902618E-8
         5418.352     1.892660E-8
         5421.976     1.882631E-8
         5425.596     1.872543E-8
         5429.231     1.862353E-8
          5432.86     1.852121E-8
         5436.494     1.841813E-8
         5440.133     1.831429E-8
         5443.772     1.820984E-8
         5447.413     1.810472E-8
         5451.054     1.799895E-8
         5454.703     1.789216E-8
         5458.352     1.778479E-8
            5462.     1.767683E-8
         5465.656     1.756801E-8
         5469.309     1.745869E-8
         5472.967     1.734840E-8
         5476.628     1.723740E-8
         5480.294     1.712563E-8
          5483.96     1.701325E-8
         5487.622     1.690038E-8
         5491.298     1.678644E-8
         5494.971     1.667200E-8
         5498.644     1.655694E-8
         5502.325     1.652279E-8
         5506.002     1.653615E-8
         5509.685     1.654945E-8
         5513.371     1.656263E-8
         5517.061     1.657574E-8
         5520.751     1.658877E-8
         5524.438     1.660171E-8
         5528.139     1.661462E-8
         5531.837     1.662734E-8
         5535.534     1.663988E-8
          5539.24     1.665237E-8
         5542.942     1.666463E-8
         5546.652     1.667679E-8
         5550.359     1.668888E-8
         5554.075     1.670108E-8
          5557.79     1.671319E-8
         5561.501     1.672513E-8
         5565.228     1.673693E-8
          5568.95     1.674863E-8
         5572.672     1.676026E-8
         5576.402     1.677182E-8
         5580.129     1.678329E-8
         5583.865     1.679452E-8
         5587.597     1.680565E-8
         5591.334     1.681671E-8
         5595.074     1.682771E-8
         5598.813     1.683862E-8
         5602.562     1.691335E-8
         5606.309     1.701776E-8
         5610.062     1.712253E-8
         5613.808     1.722726E-8
         5617.566     1.733251E-8
         5621.327     1.743788E-8
         5625.083     1.754316E-8
         5628.846     1.764877E-8
         5632.614     1.775473E-8
         5636.375     1.786066E-8
         5640.146     1.796702E-8
         5643.918     1.807356E-8
         5647.696     1.818041E-8
         5651.474     1.828745E-8
         5655.254     1.839475E-8
         5659.037     1.850229E-8
         5662.825     1.861014E-8
         5666.607     1.871798E-8
           5670.4     1.882629E-8
         5674.193     1.893447E-8
         5677.988     1.904291E-8
         5681.786     1.915160E-8
          5685.59     1.926068E-8
         5689.387     1.936971E-8
         5693.192     1.947908E-8
            5697.     1.958868E-8
         5700.814     1.971144E-8
         5704.627     1.988163E-8
         5708.443     2.005223E-8
         5712.264     2.022335E-8
         5716.079     2.039444E-8
         5719.902     2.056620E-8
         5723.728     2.073829E-8
          5727.56     2.091090E-8
         5731.391     2.108379E-8
         5735.228     2.125727E-8
         5739.063     2.143098E-8
         5742.896     2.160458E-8
         5746.737     2.177877E-8
         5750.584     2.195355E-8
         5754.431     2.212881E-8
          5758.28     2.230448E-8
         5762.131     2.248055E-8
         5765.982     2.265687E-8
         5769.839     2.283375E-8
         5773.699     2.301068E-8
         5777.561     2.318799E-8
         5781.428     2.336596E-8
         5785.295     2.354438E-8
         5789.165     2.372321E-8
         5793.034     2.390201E-8
         5796.909     2.408126E-8
         5800.786     2.427979E-8
         5804.669     2.455334E-8
         5808.552     2.482730E-8
         5812.438     2.510164E-8
         5816.325     2.537646E-8
         5820.212     2.565171E-8
         5824.105     2.592810E-8
         5828.001     2.620512E-8
         5831.902     2.648285E-8
         5835.803     2.676082E-8
         5839.707     2.703942E-8
         5843.609     2.731879E-8
         5847.518     2.759905E-8
          5851.43     2.787982E-8
         5855.343     2.816089E-8
         5859.263     2.844287E-8
         5863.182     2.872550E-8
         5867.104     2.900886E-8
         5871.025     2.929263E-8
         5874.952     2.957722E-8
         5878.882     2.986247E-8
         5882.814     3.014838E-8
         5886.752     3.043523E-8
          5890.69     3.072245E-8
          5894.63     3.101023E-8
          5898.57     3.129847E-8
         5902.515     3.148644E-8
         5906.463     3.161722E-8
         5910.414     3.174833E-8
         5914.371     3.188015E-8
         5918.327     3.201213E-8
         5922.285     3.214408E-8
         5926.243     3.227597E-8
         5930.207     3.240826E-8
         5934.174     3.254120E-8
         5938.143     3.267441E-8
         5942.118     3.280796E-8
         5946.093     3.294166E-8
         5950.066     3.307549E-8
         5954.046     3.320960E-8
         5958.029     3.334396E-8
         5962.014     3.347882E-8
         5966.002     3.361414E-8
         5969.996     3.374987E-8
         5973.989     3.388521E-8
         5977.982     3.402070E-8
          5981.98     3.415678E-8
         5985.981     3.429335E-8
         5989.985     3.443019E-8
         5993.995     3.456735E-8
         5998.004     3.470468E-8
         6002.017     3.470095E-8
         6006.028     3.455745E-8
         6010.045     3.441371E-8
         6014.065     3.427026E-8
         6018.088     3.412666E-8
         6022.113     3.398291E-8
         6026.145     3.383887E-8
         6030.172     3.369494E-8
         6034.206     3.355076E-8
         6038.242     3.340645E-8
         6042.281     3.326199E-8
         6046.322     3.311739E-8
          6050.37     3.297257E-8
         6054.417     3.282800E-8
         6058.463     3.268342E-8
         6062.516     3.253835E-8
          6066.57     3.239304E-8
         6070.628     3.224763E-8
         6074.689     3.210241E-8
         6078.752     3.195708E-8
         6082.821     3.181140E-8
         6086.887     3.166578E-8
         6090.958     3.151994E-8
         6095.032     3.137399E-8
         6099.109     3.122793E-8
         6103.188     3.106405E-8
         6107.274     3.089495E-8
         6111.356     3.072596E-8
         6115.444     3.055666E-8
         6119.534     3.038722E-8
         6123.627     3.021767E-8
         6127.724     3.004797E-8
         6131.822     2.987807E-8
         6135.927     2.970784E-8
         6140.028     2.953771E-8
         6144.135     2.936765E-8
         6148.245     2.919744E-8
         6152.357     2.902686E-8
         6156.472     2.885593E-8
          6160.59     2.868489E-8
         6164.711     2.851371E-8
         6168.834     2.834241E-8
          6172.96     2.817088E-8
         6177.089     2.799918E-8
         6181.221     2.782730E-8
         6185.355     2.765527E-8
         6189.493     2.748308E-8
         6193.633     2.731079E-8
         6197.776     2.713834E-8
         6201.921     2.711244E-8
         6206.069     2.725642E-8
         6210.221     2.740053E-8
         6214.375     2.754439E-8
         6218.531     2.768837E-8
         6222.691     2.783275E-8
         6226.853     2.797736E-8
         6231.018     2.812199E-8
         6235.186     2.826638E-8
         6239.356     2.841089E-8
          6243.53     2.855582E-8
         6247.706     2.870092E-8
         6251.885     2.884599E-8
         6256.066     2.899101E-8
         6260.251     2.913612E-8
         6264.438     2.928091E-8
         6268.629     2.942581E-8
         6272.822     2.957109E-8
         6277.018     2.971663E-8
         6281.216     2.986215E-8
         6285.417     3.000748E-8
         6289.622     3.015291E-8
         6293.829     3.029842E-8
         6298.039     3.044404E-8
         6302.251     3.065660E-8
         6306.466     3.092763E-8
         6310.685     3.119882E-8
         6314.906     3.146994E-8
          6319.13     3.174128E-8
         6323.356     3.201271E-8
         6327.586     3.228432E-8
         6331.818     3.255614E-8
         6336.054     3.282815E-8
         6340.292     3.310031E-8
         6344.533     3.337228E-8
         6348.776     3.364442E-8
         6353.023     3.391676E-8
         6357.272     3.418929E-8
         6361.524     3.446182E-8
          6365.78     3.473428E-8
         6370.038     3.500690E-8
         6374.298     3.527970E-8
         6378.562     3.555269E-8
         6382.829     3.582587E-8
         6387.098     3.609922E-8
          6391.37     3.637257E-8
         6395.645     3.664576E-8
         6399.923     3.691914E-8
         6404.204     3.714015E-8
         6408.487     3.736027E-8
         6412.774     3.758057E-8
         6417.063     3.780100E-8
         6421.355     3.802138E-8
         6425.651     3.824158E-8
         6429.949     3.846186E-8
          6434.25     3.868218E-8
         6438.553     3.890262E-8
          6442.86     3.912292E-8
         6447.169     3.934319E-8
         6451.482     3.956357E-8
         6455.797     3.978410E-8
         6460.115     4.000468E-8
         6464.437     4.022437E-8
          6468.76     4.044416E-8
         6473.087     4.066404E-8
         6477.417     4.088405E-8
          6481.75     4.110413E-8
         6486.085     4.132430E-8
         6490.423     4.154448E-8
         6494.765     4.176379E-8
         6499.109     4.198320E-8
         6503.456     4.245581E-8
         6507.806     4.299283E-8
         6512.159     4.352863E-8
         6516.515     4.406312E-8
         6520.874     4.459655E-8
         6525.235     4.512844E-8
           6529.6     4.565930E-8
         6533.967     4.618862E-8
         6538.338     4.671691E-8
         6542.711     4.724419E-8
         6547.087     4.777038E-8
         6551.467     4.829536E-8
         6555.849     4.881876E-8
         6560.234     4.934115E-8
         6564.622     4.986262E-8
         6569.013     5.038294E-8
         6573.407     5.090116E-8
         6577.804     5.141798E-8
         6582.203     5.193403E-8
         6586.606     5.244943E-8
         6591.012     5.296359E-8
          6595.42     5.347617E-8
         6599.832     5.398765E-8
         6604.247     5.507565E-8
         6608.664     5.618411E-8
         6613.084     5.728996E-8
         6617.507     5.839329E-8
         6621.934     5.949477E-8
         6626.363     6.059430E-8
         6630.795     6.169121E-8
          6635.23     6.278447E-8
         6639.669     6.387549E-8
          6644.11     6.496499E-8
         6648.554     6.605232E-8
         6653.001     6.713595E-8
         6657.451     6.821670E-8
         6661.904     6.929547E-8
          6666.36     7.037245E-8
         6670.819     7.144686E-8
         6675.281     7.251822E-8
         6679.746     7.358712E-8
         6684.214     7.465372E-8
         6688.685     7.571778E-8
         6693.159     7.677885E-8
         6697.636     7.783703E-8
         6702.116     9.627327E-8
         6706.599     1.340785E-7
         6711.084     1.802763E-7
         6715.574     2.529387E-7
         6720.065     3.254386E-7
         6724.561     3.977925E-7
         6729.058     4.699837E-7
         6733.559     5.420221E-7
         6738.063     6.139018E-7
         6742.566     6.855705E-7
          6747.08     7.571983E-7
         6751.593     8.542029E-7
         6756.109     9.978387E-7
         6760.628     1.151228E-6
          6765.15     1.366555E-6
         6769.675     1.581377E-6
           6774.2     1.862553E-6
         6778.734     2.148744E-6
         6783.269     2.486034E-6
         6787.806     2.842664E-6
         6792.346     3.198529E-6
         6796.889     3.553552E-6
         6801.436     3.975892E-6
         6805.981     4.544274E-6
         6810.538     5.120748E-6
         6815.093     5.758661E-6
         6819.651     6.395181E-6
         6824.213     7.294746E-6
         6828.777     8.214118E-6
         6833.341     9.130697E-6
         6837.912     1.004595E-5
         6842.489     1.119282E-5
         6847.066     1.253150E-5
         6851.646     1.389255E-5
         6856.229     1.529620E-5
         6860.815     1.677239E-5
           6865.4     1.859428E-5
         6869.996     2.041475E-5
         6874.591     2.230083E-5
          6879.19     2.418271E-5
         6883.791     2.652700E-5
         6888.396     2.896573E-5
         6893.003     3.135262E-5
          6897.61     3.370749E-5
         6902.224     3.636487E-5
         6906.844     3.934714E-5
         6911.464     4.227522E-5
         6916.087     4.510078E-5
         6920.713     4.800630E-5
         6925.342     5.138085E-5
          6929.97     5.474477E-5
         6934.609     5.775805E-5
         6939.248     6.075958E-5
          6943.89     6.416442E-5
         6948.534     6.764028E-5
         6953.182     7.082021E-5
         6957.829     7.385811E-5
         6962.483     7.711505E-5
         6967.144     8.056287E-5
         6971.804     8.386478E-5
         6976.467     8.694542E-5
         6981.134     9.010305E-5
         6985.803     9.351638E-5
         6990.472     9.689065E-5
         6995.148     1.000097E-4
         6999.827     1.031209E-4
         7004.513     1.066895E-4
         7009.198     1.102586E-4
         7013.886     1.135835E-4
         7018.578     1.168473E-4
         7023.268     1.205758E-4
         7027.966     1.245018E-4
         7032.671     1.282217E-4
         7037.375     1.317761E-4
         7042.082     1.353759E-4
         7046.792     1.390361E-4
         7051.502     1.428972E-4
         7056.218     1.472108E-4
         7060.938     1.514261E-4
         7065.661     1.552984E-4
         7070.391     1.591914E-4
          7075.12     1.634380E-4
         7079.853     1.676674E-4
         7084.584     1.712887E-4
         7089.323     1.748787E-4
         7094.065     1.787445E-4
         7098.814     1.826459E-4
         7103.563     1.860254E-4
         7108.313     1.892230E-4
         7113.068     1.924939E-4
         7117.822     1.957954E-4
         7122.583     1.985797E-4
         7127.347     2.009260E-4
         7132.119     2.032654E-4
         7136.889     2.055941E-4
         7141.663     2.075654E-4
         7146.432     2.088778E-4
         7151.216     2.101539E-4
         7155.999     2.113267E-4
         7160.786     2.123966E-4
          7165.58     2.129674E-4
         7170.372     2.135036E-4
         7175.168     2.136771E-4
         7179.964     2.138481E-4
         7184.766     2.133667E-4
         7189.572     2.128805E-4
         7194.381     2.119238E-4
         7199.197     2.109224E-4
         7204.013     2.097624E-4
         7208.831     2.085729E-4
         7213.645     2.071445E-4
         7218.474     2.056381E-4
         7223.302     2.039196E-4
         7228.134     2.021055E-4
         7232.973     1.999777E-4
         7237.811     1.976597E-4
         7242.644     1.954247E-4
         7247.492     1.932511E-4
          7252.34     1.907781E-4
         7257.191     1.879843E-4
         7262.045     1.852534E-4
         7266.907     1.826035E-4
         7271.768     1.798275E-4
         7276.624     1.768263E-4
         7281.495     1.738275E-4
         7286.365     1.708401E-4
         7291.239     1.677994E-4
         7296.116     1.645842E-4
            7301.     1.614163E-4
         7305.883     1.584120E-4
         7310.762     1.553553E-4
         7315.656     1.519350E-4
         7320.549     1.485506E-4
         7325.446     1.453423E-4
          7330.35     1.421210E-4
         7335.253     1.386278E-4
         7340.151     1.351627E-4
         7345.061     1.320047E-4
         7349.978     1.288555E-4
         7354.894     1.252911E-4
         7359.814     1.217375E-4
         7364.737     1.187315E-4
         7369.667     1.157550E-4
         7374.588     1.123394E-4
         7379.521     1.088972E-4
         7384.461     1.058533E-4
           7389.4     1.028646E-4
         7394.343     9.962016E-5
         7399.293     9.634805E-5
         7404.242     9.340428E-5
         7409.187     9.052832E-5
         7414.143     8.745519E-5
         7419.105     8.435170E-5
         7424.068     8.160916E-5
         7429.034     7.895300E-5
         7434.007     7.611192E-5
         7438.971     7.324271E-5
         7443.947     7.066327E-5
         7448.926     6.816774E-5
         7453.913     6.554015E-5
         7458.898     6.288636E-5
         7463.888     6.052061E-5
         7468.884     5.824068E-5
         7473.872     5.588324E-5
         7478.871     5.350470E-5
         7483.877     5.140809E-5
         7488.883     4.940089E-5
         7493.893     4.726486E-5
         7498.905     4.509793E-5
         7503.921     4.326224E-5
         7508.936     4.152473E-5
         7513.958     3.965420E-5
         7518.989     3.775197E-5
         7524.018     3.609133E-5
         7529.051     3.449544E-5
         7534.086     3.285865E-5
          7539.13     3.121559E-5
         7544.165     2.982203E-5
         7549.211     2.848126E-5
         7554.265     2.709590E-5
         7559.317     2.570805E-5
         7564.374     2.447474E-5
         7569.433     2.326941E-5
         7574.492     2.206969E-5
         7579.559     2.087370E-5
         7584.633     1.994227E-5
         7589.706     1.904005E-5
         7594.782     1.803419E-5
         7599.862     1.702560E-5
         7604.946     1.618651E-5
         7610.028     1.535635E-5
         7615.119     1.458495E-5
         7620.212     1.381893E-5
         7625.313     1.310940E-5
         7630.414     1.240778E-5
         7635.518     1.176060E-5
         7640.625     1.112965E-5
         7645.731     1.059986E-5
         7650.846     1.006248E-5
         7655.967     9.480292E-6
         7661.088     8.936408E-6
         7666.212     8.525917E-6
          7671.34     8.102571E-6
         7676.467     7.640438E-6
         7681.602     7.214263E-6
          7686.74     6.865757E-6
         7691.886     6.518329E-6
         7697.031     6.172612E-6
         7702.179     5.851527E-6
         7707.331     5.563339E-6
         7712.482     5.276570E-6
         7717.641     4.990735E-6
         7722.803     4.735649E-6
         7727.973     4.506270E-6
         7733.142     4.278027E-6
         7738.314     4.050702E-6
          7743.49     3.860811E-6
         7748.666     3.689413E-6
         7753.849     3.518576E-6
         7759.035     3.348461E-6
         7764.229     3.178898E-6
         7769.422     3.010185E-6
         7774.619     2.842180E-6
         7779.815     2.675021E-6
         7785.019     2.559814E-6
         7790.226     2.446989E-6
         7795.437     2.334627E-6
         7800.655     2.222652E-6
         7805.873     2.111238E-6
         7811.094     2.000293E-6
         7816.314     1.889913E-6
         7821.543     1.795425E-6
         7826.774     1.738358E-6
          7832.01     1.681522E-6
         7837.252     1.624881E-6
         7842.495     1.568521E-6
         7847.741     1.512395E-6
         7852.985     1.456557E-6
         7858.238     1.400903E-6
         7863.494     1.311053E-6
         7868.754     1.204254E-6
         7874.021     1.176706E-6
         7879.289     1.173664E-6
         7884.554     1.126202E-6
         7889.828     1.071967E-6
         7895.105     9.722911E-7
         7900.386     8.771652E-7
         7905.675     8.537907E-7
         7910.963     8.305357E-7
         7916.254     8.073790E-7
         7921.545     7.843370E-7
         7926.844     7.613767E-7
         7932.146     7.385129E-7
         7937.452     7.157485E-7
         7942.761     6.930823E-7
         7948.078     6.704935E-7
         7953.394     6.480245E-7
          7958.71     6.256677E-7
         7964.033     6.033935E-7
          7969.36     5.812150E-7
         7974.691     5.591343E-7
         7980.025     5.371508E-7
         7985.367     5.152493E-7
         7990.704     4.934786E-7
         7996.048     4.717875E-7
         8001.397     4.530108E-7
         8006.749     4.422884E-7
         8012.104     4.316309E-7
         8017.468     4.210284E-7
         8022.831     4.105001E-7
         8028.193     4.000428E-7
         8033.563     3.896428E-7
         8038.936     3.793063E-7
         8044.313     3.690346E-7
         8049.694     3.588261E-7
         8055.078     3.486823E-7
          8060.47     3.385944E-7
         8065.857     3.285867E-7
         8071.252     3.186346E-7
         8076.651     3.087457E-7
         8082.054     2.989211E-7
         8087.459     2.891610E-7
         8092.874     2.794563E-7
         8098.287     2.698235E-7
         8103.699     2.632815E-7
         8109.119     2.581703E-7
         8114.543     2.530904E-7
         8119.971     2.480416E-7
         8125.402     2.430239E-7
         8130.837     2.380368E-7
         8136.276     2.330814E-7
         8141.718     2.281569E-7
         8147.164     2.232626E-7
         8152.613     2.183999E-7
         8158.066     2.135681E-7
         8163.523     2.087670E-7
         8168.988     2.039932E-7
         8174.448     1.992577E-7
         8179.916     1.945489E-7
         8185.387     1.898716E-7
         8190.862     1.852246E-7
         8196.341     1.806080E-7
         8201.823     1.766684E-7
         8207.313     1.740449E-7
         8212.799     1.714409E-7
         8218.292     1.688505E-7
         8223.789     1.662756E-7
          8229.29     1.637160E-7
         8234.794     1.611723E-7
         8240.303     1.586435E-7
         8245.814     1.561306E-7
         8251.329     1.536332E-7
         8256.849     1.511506E-7
         8262.371     1.486839E-7
         8267.898     1.462322E-7
         8273.429     1.437964E-7
         8278.962     1.413763E-7
           8284.5     1.389711E-7
         8290.041     1.365816E-7
         8295.586     1.342073E-7
         8301.135     1.319725E-7
         8306.688     1.302334E-7
         8312.244     1.285045E-7
         8317.804     1.267865E-7
         8323.367     1.250785E-7
         8328.935     1.233804E-7
         8334.506     1.216930E-7
          8340.08     1.200161E-7
         8345.659     1.183487E-7
         8351.241     1.167655E-7
         8356.827     1.154458E-7
         8362.417     1.141282E-7
         8368.011     1.128128E-7
         8373.607     1.114995E-7
         8379.208     1.101882E-7
         8384.813     1.088792E-7
         8390.422     1.075726E-7
         8396.034     1.062678E-7
         8401.649     1.048810E-7
          8407.27     1.032931E-7
         8412.893     1.017088E-7
          8418.52     1.001277E-7
         8424.151     9.854969E-8
         8429.786     9.697528E-8
         8435.424     9.540462E-8
         8441.066     9.383711E-8
         8446.713     9.227308E-8
         8452.362     9.071303E-8
         8458.016     8.915681E-8
         8463.674     8.760377E-8
         8469.335     8.605452E-8
            8475.     8.450903E-8
         8480.668     8.296759E-8
         8486.341     8.142974E-8
         8492.018     7.989576E-8
         8497.697     7.836599E-8
         8503.381     7.725676E-8
         8509.069     7.643331E-8
         8514.761     7.561167E-8
         8520.456     7.479170E-8
         8526.155     7.397344E-8
         8531.858     7.315689E-8
         8537.564     7.234222E-8
         8543.275     7.152920E-8
          8548.99     7.071795E-8
         8554.708     6.990868E-8
         8560.431     6.910111E-8
         8566.156     6.829556E-8
         8571.886     6.749186E-8
         8577.619     6.669011E-8
         8583.356     6.589011E-8
         8589.098     6.509189E-8
         8594.843     6.429613E-8
         8600.592     6.347958E-8
         8606.345     6.246611E-8
         8612.102     6.145575E-8
         8617.862     6.044852E-8
         8623.621     5.944553E-8
         8629.395     5.844390E-8
         8635.166     5.744652E-8
         8640.942     5.645225E-8
         8646.722     5.546152E-8
         8652.506     5.447143E-8
         8658.293     5.348174E-8
         8664.085     5.249554E-8
          8669.88     5.151322E-8
         8675.679     5.053468E-8
         8681.481     4.955989E-8
         8687.289     4.858871E-8
           8693.1     4.762154E-8
         8698.914     4.665824E-8
         8704.728     4.619326E-8
         8710.555     4.584193E-8
         8716.382     4.549137E-8
         8722.212     4.514139E-8
         8728.046     4.479197E-8
         8733.884     4.444309E-8
         8739.721     4.409506E-8
         8745.571     4.374699E-8
         8751.421     4.339979E-8
         8757.275     4.305316E-8
         8763.133     4.270716E-8
         8768.994     4.236177E-8
         8774.859     4.201699E-8
         8780.724     4.167311E-8
         8786.602     4.132930E-8
         8792.479     4.098634E-8
          8798.36     4.064408E-8
         8804.245     4.030088E-8
         8810.135     3.995767E-8
         8816.027     3.961523E-8
         8821.919     3.927376E-8
         8827.825     3.893236E-8
         8833.729     3.859200E-8
         8839.639     3.825231E-8
         8845.551     3.791344E-8
         8851.468     3.757526E-8
         8857.384     3.723807E-8
         8863.308     3.690142E-8
         8869.241     3.656520E-8
         8875.174     3.623006E-8
          8881.11     3.589569E-8
         8887.051     3.556215E-8
         8892.995     3.522940E-8
         8898.938     3.489772E-8
         8904.891     3.461603E-8
         8910.852     3.434528E-8
         8916.813     3.407510E-8
         8922.776     3.380536E-8
         8928.745     3.353594E-8
         8934.717     3.326700E-8
         8940.688     3.299863E-8
         8946.669     3.273045E-8
         8952.658     3.246093E-8
         8958.646     3.219021E-8
         8964.639     3.191992E-8
         8970.635     3.165018E-8
          8976.63     3.138115E-8
         8982.634     3.111242E-8
         8988.643     3.084418E-8
          8994.66     3.057622E-8
         9000.676     3.043575E-8
         9006.696     3.129200E-8
         9012.721     3.213906E-8
         9018.744     3.297617E-8
         9024.776     3.380466E-8
         9030.818     3.462457E-8
         9036.858     3.543423E-8
         9042.903     3.623454E-8
         9048.952     3.702529E-8
         9055.005     3.780641E-8
         9061.057     3.857721E-8
         9067.117     3.933885E-8
         9073.182     4.009065E-8
         9079.256     4.083328E-8
         9085.329     4.156535E-8
         9091.405     4.228727E-8
         9097.481     4.299867E-8
         9103.567     4.291662E-8
         9109.656     4.228145E-8
         9115.749     4.164954E-8
         9121.852     4.102032E-8
         9127.953     4.039497E-8
         9134.059     3.977295E-8
         9140.163     3.915481E-8
         9146.277     3.853951E-8
         9152.395     3.792774E-8
         9158.521     3.731882E-8
         9164.647     3.671391E-8
         9170.777     3.611254E-8
         9176.912     3.551461E-8
         9183.045     3.492083E-8
         9189.188     3.433006E-8
         9195.334     3.374293E-8
         9201.484     3.327529E-8
         9207.644     3.317190E-8
         9213.803     3.306661E-8
         9219.961     3.295939E-8
         9226.128     3.285004E-8
         9232.299     3.273866E-8
         9238.475     3.262522E-8
         9244.653     3.250976E-8
         9250.843     3.239169E-8
          9257.03     3.226897E-8
         9263.217     3.214429E-8
         9269.413     3.201739E-8
         9275.613     3.188844E-8
         9281.817     3.175741E-8
         9288.025     3.162430E-8
         9294.243     3.148893E-8
          9300.46     3.138481E-8
         9306.676     3.169132E-8
           9312.9     3.198947E-8
          9319.13     3.227901E-8
         9325.363     3.255984E-8
         9331.601     3.283195E-8
         9337.848     3.309551E-8
         9344.089     3.334981E-8
         9350.339     3.359539E-8
         9356.593     3.383206E-8
         9362.852     3.405976E-8
         9369.114     3.427840E-8
         9375.386     3.448806E-8
         9381.657     3.468845E-8
         9387.927     3.487957E-8
         9394.206     3.506146E-8
          9400.49     3.524027E-8
         9406.777     3.548316E-8
         9413.069     3.571517E-8
         9419.366     3.593622E-8
         9425.672     3.614650E-8
         9431.971     3.634547E-8
          9438.28     3.653374E-8
         9444.593     3.671068E-8
          9450.91     3.687644E-8
         9457.231     3.703109E-8
         9463.563     3.717455E-8
         9469.893     3.730651E-8
         9476.222     3.742673E-8
         9482.561     3.753555E-8
         9488.903     3.763280E-8
          9495.25     3.771853E-8
         9501.602     3.815484E-8
         9507.962     3.964258E-8
         9514.316     4.109615E-8
          9520.68     4.251895E-8
         9527.048     4.391027E-8
         9533.421     4.526982E-8
         9539.798     4.659744E-8
         9546.179     4.789329E-8
         9552.569     4.915847E-8
         9558.953     5.038978E-8
         9565.347     5.159050E-8
         9571.745     5.275974E-8
         9578.147     5.389740E-8
         9584.554     5.500329E-8
         9590.965     5.607765E-8
         9597.386     5.712135E-8
           9603.8     5.835074E-8
         9610.224     5.969458E-8
         9616.651     6.099948E-8
         9623.084     6.226561E-8
         9629.521     6.349283E-8
         9635.962     6.468142E-8
         9642.407     6.583117E-8
         9648.856     6.694211E-8
         9655.311     6.801449E-8
         9661.769     6.904813E-8
         9668.231     7.004332E-8
         9674.698     7.099985E-8
         9681.169     7.191782E-8
          9687.64     7.279674E-8
         9694.125     7.363861E-8
         9700.609     7.458755E-8
         9707.098     7.688763E-8
         9713.591     7.911314E-8
         9720.088     8.126380E-8
         9726.589     8.333961E-8
         9733.095     8.534121E-8
         9739.605     8.726864E-8
          9746.12     8.912139E-8
         9752.639     9.088730E-8
         9759.162     9.255999E-8
          9765.69     9.415731E-8
         9772.217     9.567800E-8
         9778.753     9.712512E-8
           9785.3     9.849873E-8
         9791.845     9.979638E-8
         9798.395     1.010196E-7
         9804.948     1.035709E-7
         9811.507     1.064559E-7
         9818.063     1.092101E-7
         9824.631     1.118391E-7
         9831.208     1.143427E-7
         9837.784     1.167169E-7
         9844.364     1.189640E-7
         9850.949     1.210848E-7
         9857.538     1.230792E-7
         9864.126     1.249460E-7
         9870.729     1.266902E-7
         9877.332     1.283076E-7
         9883.938     1.297998E-7
          9890.55     1.311676E-7
         9897.165     1.324109E-7
         9903.779     1.345314E-7
         9910.404     1.372326E-7
         9917.033     1.397471E-7
         9923.672     1.420762E-7
          9930.31     1.442169E-7
         9936.952     1.461720E-7
         9943.599     1.479423E-7
         9950.244     1.495271E-7
         9956.899     1.509284E-7
         9963.564     1.521472E-7
         9970.229     1.531822E-7
         9976.898     1.540347E-7
         9983.571     1.547056E-7
         9990.249     1.551957E-7
         9996.926     1.555043E-7
         10003.61     1.425292E-7
          10010.3     1.223629E-7
           10017.     1.752380E-7
          10023.7     1.967105E-7
         10030.42     1.973403E-7
         10037.11     2.523293E-7
         10043.83     2.305389E-7
         10050.55     1.595078E-7
         10057.27     1.569466E-7
           10064.     1.706317E-7
         10070.73     1.924096E-7
         10077.47     1.945137E-7
          10084.2     2.094470E-7
         10090.95     2.271886E-7
          10097.7     2.182447E-7
         10104.45     2.029622E-7
         10111.21     1.856489E-7
         10117.97     1.727654E-7
         10124.75     1.965637E-7
         10131.51     2.252070E-7
         10138.29     2.210418E-7
         10145.07     2.269020E-7
         10151.86     2.297299E-7
         10158.65     2.167226E-7
         10165.44     2.276967E-7
         10172.25     2.329255E-7
         10179.05     2.161255E-7
         10185.86     2.203124E-7
         10192.67     2.320239E-7
         10199.49     2.500530E-7
         10206.31     2.429724E-7
         10213.14     2.374322E-7
         10219.97     2.358095E-7
          10226.8     2.549769E-7
         10233.64     2.421699E-7
         10240.49     2.076501E-7
         10247.34     2.322521E-7
         10254.19     2.515935E-7
         10261.05     2.640092E-7
         10267.91     2.575047E-7
         10274.78     2.489740E-7
         10281.66     2.404091E-7
         10288.53     2.341467E-7
         10295.41     2.365875E-7
          10302.3     2.391036E-7
         10309.19     2.377057E-7
         10316.09     2.450141E-7
         10322.99     2.516605E-7
         10329.89     2.562015E-7
          10336.8     2.258009E-7
         10343.72     2.168868E-7
         10350.63     2.253044E-7
         10357.56     2.327936E-7
         10364.49     2.248107E-7
         10371.42     2.136877E-7
         10378.36     2.195555E-7
          10385.3     2.189126E-7
         10392.24     2.121087E-7
          10399.2     1.971851E-7
         10406.15     2.060689E-7
         10413.11     2.046239E-7
         10420.08     1.886437E-7
         10427.05     1.876636E-7
         10434.02     1.829224E-7
           10441.     1.745442E-7
         10447.98     1.597794E-7
         10454.97     1.635116E-7
         10461.96     1.684691E-7
         10468.96     1.612649E-7
         10475.97     1.547548E-7
         10482.97     1.445161E-7
         10489.98     1.298829E-7
           10497.     1.333291E-7
         10504.02     1.312303E-7
         10511.05     1.261995E-7
         10518.08     1.225807E-7
         10525.11     1.223177E-7
         10532.15     1.229986E-7
          10539.2     1.230954E-7
         10546.25     1.224964E-7
          10553.3     1.237636E-7
         10560.36     1.268240E-7
         10567.42     1.238913E-7
         10574.49     1.265398E-7
         10581.57     1.301089E-7
         10588.64     1.264296E-7
         10595.73     1.269267E-7
         10602.81     1.270534E-7
         10609.91     1.252577E-7
           10617.     1.204903E-7
          10624.1     1.168158E-7
         10631.21     1.143385E-7
         10638.32     1.137705E-7
         10645.44     1.182580E-7
         10652.56     1.212923E-7
         10659.68     1.193276E-7
         10666.81     1.138557E-7
         10673.95     1.109256E-7
         10681.09     1.096752E-7
         10688.23     1.063118E-7
         10695.38     1.059104E-7
         10702.54     1.067106E-7
         10709.69     1.079855E-7
         10716.86     1.052336E-7
         10724.03     1.030891E-7
          10731.2     1.015186E-7
         10738.38     9.992961E-8
         10745.56     9.991053E-8
         10752.75     9.902509E-8
         10759.94     9.615424E-8
         10767.14     9.332635E-8
         10774.34     9.188385E-8
         10781.54     9.034719E-8
         10788.76     8.546579E-8
         10795.97     8.443206E-8
         10803.19     8.365664E-8
         10810.42     8.223765E-8
         10817.65     8.019575E-8
         10824.89     7.898836E-8
         10832.13     7.725163E-8
         10839.37     7.346404E-8
         10846.62     7.081336E-8
         10853.88     6.859601E-8
         10861.14     6.677087E-8
          10868.4     6.558914E-8
         10875.67     6.398135E-8
         10882.95     6.225415E-8
         10890.23     6.049120E-8
         10897.52     5.786254E-8
          10904.8     5.544183E-8
         10912.09     5.354764E-8
         10919.39     5.264929E-8
          10926.7     5.011871E-8
           10934.     4.731460E-8
         10941.32     4.494561E-8
         10948.64     4.482499E-8
         10955.96     4.171057E-8
         10963.29     3.885340E-8
         10970.62     3.701563E-8
         10977.96     3.545463E-8
          10985.3     3.398653E-8
         10992.65     3.173694E-8
           11000.     2.821530E-8
