#  Table wf3f218wsys.tab  Mon 12:22:12 02-Jun-97

#      WAVELENGTH      THROUGHPUT
#       angstroms                

            1216.    4.819230E-21
          1217.34    4.887412E-21
         1218.682    4.956178E-21
         1220.026    5.025316E-21
         1221.371    5.079833E-21
         1222.717    5.134741E-21
         1224.065    5.190106E-21
         1225.414    5.245891E-21
         1226.765    5.302109E-21
         1228.117    5.358756E-21
         1229.471    5.415834E-21
         1230.826    5.464881E-21
         1232.183    5.508857E-21
         1233.542    5.553129E-21
         1234.901    5.597637E-21
         1236.262    5.642443E-21
         1237.625    5.687511E-21
         1238.989    5.732882E-21
         1240.355    5.775667E-21
         1241.722    5.810395E-21
         1243.091    5.845315E-21
         1244.461    5.880409E-21
         1245.833    5.915663E-21
         1247.207    5.951126E-21
         1248.582    5.986754E-21
         1249.957    6.022539E-21
         1251.335    6.050509E-21
         1252.715    6.078334E-21
         1254.095    6.106257E-21
         1255.478    6.134314E-21
         1256.862    6.162472E-21
         1258.247    6.190723E-21
         1259.634    6.219100E-21
         1261.023    6.242557E-21
         1262.413    6.264281E-21
         1263.805    6.286068E-21
         1265.198    6.307916E-21
         1266.592    6.329819E-21
         1267.989    6.351797E-21
         1269.387    6.373846E-21
         1270.786    6.392702E-21
         1272.187    6.409073E-21
         1273.588    6.425464E-21
         1274.992    6.441893E-21
         1276.399    6.458357E-21
         1277.805    6.474837E-21
         1279.214    6.491350E-21
         1280.624    6.505897E-21
         1282.035    6.517930E-21
         1283.449    6.529981E-21
         1284.864    6.542031E-21
          1286.28    6.554079E-21
         1287.698    6.566141E-21
         1289.117    6.578205E-21
         1290.538    6.589040E-21
         1291.961    6.597846E-21
         1293.385    6.606640E-21
         1294.811    6.615421E-21
         1296.238    6.624196E-21
         1297.668    6.632964E-21
         1299.098    6.641715E-21
          1300.53    6.649699E-21
         1301.963    6.656369E-21
         1303.398    6.663019E-21
         1304.835    6.669651E-21
         1306.274    6.676267E-21
         1307.713    6.682857E-21
         1309.155    6.689433E-21
         1310.597    6.695317E-21
         1312.042    6.700235E-21
         1313.489    6.705127E-21
         1314.937    6.709993E-21
         1316.386    6.714831E-21
         1317.837    6.719642E-21
          1319.29    6.724427E-21
         1320.744    6.728527E-21
           1322.2    6.731970E-21
         1323.657    6.735380E-21
         1325.117    6.738759E-21
         1326.578    6.742104E-21
         1328.039    6.745415E-21
         1329.503    6.748696E-21
         1330.969    6.751176E-21
         1332.436    6.753224E-21
         1333.905    6.755238E-21
         1335.376    6.757212E-21
         1336.847    6.759146E-21
         1338.321    6.761044E-21
         1339.796    6.762904E-21
         1341.273    6.764049E-21
         1342.752    6.765046E-21
         1344.232    6.765999E-21
         1345.713    6.766912E-21
         1347.197    6.767782E-21
         1348.682    6.768611E-21
         1350.169    6.769331E-21
         1351.657    6.769501E-21
         1353.146    6.769626E-21
         1354.638    6.769098E-21
         1356.131    6.767716E-21
         1357.627    6.766293E-21
         1359.123    6.764831E-21
         1360.621    6.763193E-21
         1362.121    6.761324E-21
         1363.622    6.759414E-21
         1365.126    6.757460E-21
          1366.63    6.755465E-21
         1368.137    6.753427E-21
         1369.645    6.751347E-21
         1371.155    6.749213E-21
         1372.667    6.747032E-21
          1374.18    6.744809E-21
         1375.694    6.742546E-21
         1377.211    6.740236E-21
         1378.729    6.737886E-21
         1380.249    6.735524E-21
         1381.771    6.733286E-21
         1383.294    6.731005E-21
         1384.818    6.728683E-21
         1386.345    6.726316E-21
         1387.874    6.723908E-21
         1389.403    6.721458E-21
         1390.935    6.719274E-21
         1392.468    6.717246E-21
         1394.002    6.715179E-21
          1395.54    6.713068E-21
         1397.078    6.710920E-21
         1398.618    6.708730E-21
          1400.16    6.706568E-21
         1401.703    6.704967E-21
         1403.248    6.703327E-21
         1404.795    6.701648E-21
         1406.343    6.699930E-21
         1407.894    6.698174E-21
         1409.446    6.696379E-21
         1410.999    6.694764E-21
         1412.555    6.693232E-21
         1414.112    6.691661E-21
          1415.67    6.690055E-21
         1417.231    6.688410E-21
         1418.793    6.686727E-21
         1420.357    6.684972E-21
         1421.923    6.683066E-21
         1423.491    6.681121E-21
         1425.059    6.679139E-21
          1426.63    6.677118E-21
         1428.203    6.675059E-21
         1429.777    6.672963E-21
         1431.354    6.670399E-21
         1432.932    6.667724E-21
          1434.51    6.665013E-21
         1436.092    6.662258E-21
         1437.676    6.659464E-21
          1439.26    6.656633E-21
         1440.847    6.653233E-21
         1442.435    6.649331E-21
         1444.024    6.645388E-21
         1445.617    6.641401E-21
          1447.21    6.637374E-21
         1448.805    6.633303E-21
         1450.402    6.628816E-21
         1452.001    6.623173E-21
         1453.602    6.617478E-21
         1455.205    6.611740E-21
         1456.808    6.605960E-21
         1458.414    6.600129E-21
         1460.022    6.594229E-21
         1461.631    6.586473E-21
         1463.243    6.578668E-21
         1464.856    6.570812E-21
          1466.47    6.562910E-21
         1468.086    6.554953E-21
         1469.706    6.546942E-21
         1471.325    6.536957E-21
         1472.947    6.526483E-21
         1474.571    6.515954E-21
         1476.196    6.505373E-21
         1477.824    6.494728E-21
         1479.453    6.484035E-21
         1481.083    6.471473E-21
         1482.716    6.457929E-21
          1484.35    6.444325E-21
         1485.987    6.430662E-21
         1487.625    6.421885E-21
         1489.264    6.421009E-21
         1490.906    6.418245E-21
         1492.549    6.413907E-21
         1494.195    6.409407E-21
         1495.842    6.404745E-21
         1497.491    6.399921E-21
         1499.142    6.394936E-21
         1500.794    6.385759E-21
         1502.449    6.372015E-21
         1504.105    6.358078E-21
         1505.763    6.343929E-21
         1507.423    6.329576E-21
         1509.084    6.315025E-21
         1510.748    6.299143E-21
         1512.414    6.281697E-21
          1514.08    6.264045E-21
         1515.749    6.246174E-21
         1517.419    6.228097E-21
         1519.093    6.209789E-21
         1520.768    6.190601E-21
         1522.444    6.170397E-21
         1524.122    6.149985E-21
         1525.802    6.129349E-21
         1527.484    6.108500E-21
         1529.168    6.087434E-21
         1530.854    6.065819E-21
          1532.54    6.043674E-21
          1534.23    6.021305E-21
         1535.921    5.998722E-21
         1537.615    5.975915E-21
          1539.31    5.952918E-21
         1541.006    5.929862E-21
         1542.705    5.906708E-21
         1544.405    5.883358E-21
         1546.109    5.850377E-21
         1547.812    5.812342E-21
         1549.518    5.774282E-21
         1551.227    5.736977E-21
         1552.936    5.699986E-21
         1554.648    5.662970E-21
         1556.363    5.625927E-21
         1558.078    5.588911E-21
         1559.795    5.551874E-21
         1561.515    5.516500E-21
         1563.235    5.481364E-21
         1564.958    5.446202E-21
         1566.685    5.411015E-21
         1568.411    5.375854E-21
          1570.14    5.340871E-21
         1571.871    5.308200E-21
         1573.603    5.275536E-21
         1575.338    5.242843E-21
         1577.075    5.210124E-21
         1578.813    5.177426E-21
         1580.553    5.145749E-21
         1582.295    5.116322E-21
         1584.039    5.086864E-21
         1585.785    5.057393E-21
         1587.534    5.027908E-21
         1589.284    4.998409E-21
         1591.036    4.971165E-21
          1592.79    4.945473E-21
         1594.545    4.919777E-21
         1596.303    4.894049E-21
         1598.062    4.868305E-21
         1599.824    4.842541E-21
         1601.588    4.820688E-21
         1603.353    4.799259E-21
          1605.12    4.777800E-21
          1606.89    4.756317E-21
         1608.661    4.734813E-21
         1610.434    4.714409E-21
          1612.21    4.697436E-21
         1613.986    4.680448E-21
         1615.765    4.663429E-21
         1617.548    4.646377E-21
          1619.33    4.629319E-21
         1621.115    4.615154E-21
         1622.902    4.602723E-21
          1624.69    4.590276E-21
         1626.482    4.577794E-21
         1628.275    4.565299E-21
         1630.069    4.552960E-21
         1631.867    4.545188E-21
         1633.665    4.537400E-21
         1635.466    4.529584E-21
         1637.269    4.521750E-21
         1639.074    4.513896E-21
          1640.88    4.508437E-21
         1642.689    4.505499E-21
           1644.5    4.502547E-21
         1646.313    4.499583E-21
         1648.128    4.496875E-21
         1649.944    4.497725E-21
         1651.763    4.503483E-21
         1653.585    4.509397E-21
         1655.407    4.515303E-21
         1657.232    4.521211E-21
         1659.058    4.527113E-21
         1660.888    4.535302E-21
         1662.719    4.545928E-21
         1664.552    4.556574E-21
         1666.386    4.567235E-21
         1668.223    4.577922E-21
         1670.062    4.588772E-21
         1671.903    4.603722E-21
         1673.746    4.618717E-21
          1675.59    4.633749E-21
         1677.437    4.648835E-21
         1679.287    4.663967E-21
         1681.139    4.681449E-21
         1682.991    4.700417E-21
         1684.847    4.719467E-21
         1686.704    4.738587E-21
         1688.563    4.757767E-21
         1690.425    4.777779E-21
         1692.287    4.800354E-21
         1694.153    4.823038E-21
         1696.021    4.845816E-21
          1697.89    4.868678E-21
         1699.762    4.891660E-21
         1701.636    4.917186E-21
         1703.512    4.943190E-21
         1705.389    4.969298E-21
         1707.269    4.995540E-21
         1709.151    5.021902E-21
         1711.035    5.049737E-21
         1712.922    5.078820E-21
         1714.809    5.108033E-21
         1716.699    5.137399E-21
         1718.592    5.166910E-21
         1720.485    5.197055E-21
         1722.383    5.228859E-21
         1724.281    5.260788E-21
         1726.182    5.292897E-21
         1728.086    5.325186E-21
          1729.99    5.357608E-21
         1731.897    5.391864E-21
         1733.806    5.426309E-21
         1735.718    5.460935E-21
          1737.63    5.495723E-21
         1739.546    5.530710E-21
         1741.463    5.566857E-21
         1743.383    5.603501E-21
         1745.305    5.640340E-21
         1747.228    5.677357E-21
         1749.154    5.714593E-21
         1751.084     1.805030E-6
         1753.013     5.043955E-6
         1754.946     8.320154E-6
          1756.88     1.163242E-5
         1758.817     1.498077E-5
         1760.756     1.836657E-5
         1762.697     2.179094E-5
         1764.639     2.525140E-5
         1766.585     2.875146E-5
         1768.532     3.228984E-5
         1770.482     3.586791E-5
         1772.434     3.948845E-5
         1774.387     4.314871E-5
         1776.343     4.684752E-5
         1778.301     5.058837E-5
         1780.262     5.437260E-5
         1782.224     5.819958E-5
         1784.189     6.207050E-5
         1786.156     6.598372E-5
         1788.124     6.993754E-5
         1790.096     7.393831E-5
         1792.068     7.798716E-5
         1794.044     8.208229E-5
         1796.022     8.622201E-5
         1798.001     9.040455E-5
         1799.984     9.463635E-5
         1801.968     9.892093E-5
         1803.954     1.032521E-4
         1805.942     1.076282E-4
         1807.933     1.120533E-4
         1809.926     1.165257E-4
         1811.922     1.210589E-4
         1813.919     1.256412E-4
         1815.918     1.302704E-4
          1817.92     1.349518E-4
         1819.925     1.396850E-4
          1821.93     1.444781E-4
         1823.938     1.493251E-4
         1825.948     1.542218E-4
         1827.962     1.591753E-4
         1829.976     1.641763E-4
         1831.995     1.692521E-4
         1834.013     1.743769E-4
         1836.035     1.795588E-4
         1838.059     1.847953E-4
         1840.084     1.900850E-4
         1842.113     1.954506E-4
         1844.144     2.008727E-4
         1846.177     2.063519E-4
         1848.212     2.118887E-4
         1850.248     2.230422E-4
         1852.288     2.612279E-4
          1854.33     2.265505E-4
         1856.375     2.400552E-4
         1858.421     2.614289E-4
         1860.469     2.713807E-4
          1862.52     2.811515E-4
         1864.573     2.793561E-4
         1866.628     2.891140E-4
         1868.686     2.852336E-4
         1870.746     3.000303E-4
         1872.808     3.259969E-4
         1874.872     3.363596E-4
         1876.939     3.539557E-4
         1879.008     3.770619E-4
         1881.079     3.867516E-4
         1883.153     3.997010E-4
         1885.229     4.162848E-4
         1887.307     4.187878E-4
         1889.387     4.302850E-4
         1891.471     4.469642E-4
         1893.555     4.793391E-4
         1895.643     4.970281E-4
         1897.732     5.148117E-4
         1899.823     5.367776E-4
         1901.919     5.477702E-4
         1904.014     5.591884E-4
         1906.113     5.864837E-4
         1908.215     6.046965E-4
         1910.317     6.315263E-4
         1912.424     6.468468E-4
         1914.532     6.667941E-4
         1916.643     6.879087E-4
         1918.755     7.120039E-4
          1920.87     7.371128E-4
         1922.988     7.541826E-4
         1925.107     7.774237E-4
          1927.23     8.059232E-4
         1929.354     8.354792E-4
         1931.481     8.574246E-4
          1933.61     8.747831E-4
          1935.74     9.134839E-4
         1937.875     9.367506E-4
         1940.011     9.716668E-4
         1942.149     9.971784E-4
          1944.29     0.001016948
         1946.434     0.001039154
          1948.58     0.001066564
         1950.728     0.001103416
         1952.878      0.00113484
          1955.03     0.001158271
         1957.185     0.001177843
         1959.343     0.001211909
         1961.503     0.001243979
         1963.665     0.001270007
         1965.829       0.0013048
         1967.996     0.001343441
         1970.167     0.001370593
         1972.339     0.001389109
         1974.512     0.001425541
         1976.689     0.001460381
         1978.868     0.001481584
         1981.049     0.001514093
         1983.233     0.001534327
         1985.418     0.001567542
         1987.607     0.001596695
         1989.798     0.001621923
         1991.992      0.00165652
         1994.188     0.001688547
         1996.386     0.001702766
         1998.586     0.001738455
         2000.789     0.001756019
         2002.996      0.00178722
         2005.203     0.001818856
         2007.414      0.00183934
         2009.627     0.001866624
         2011.841     0.001901813
          2014.06     0.001925998
         2016.279     0.001937981
         2018.502      0.00196345
         2020.727     0.001986423
         2022.955     0.002009787
         2025.185     0.002038928
         2027.417     0.002067558
         2029.652      0.00208378
         2031.889     0.002110219
         2034.129     0.002122099
         2036.371     0.002149526
         2038.616     0.002168583
         2040.864     0.002183998
         2043.112       0.0022099
         2045.365     0.002223739
         2047.621     0.002244245
         2049.877      0.00227293
         2052.137     0.002281703
         2054.399     0.002304146
         2056.664     0.002328336
         2058.931     0.002345697
         2061.201     0.002355598
         2063.472     0.002367713
         2065.747     0.002390396
         2068.024     0.002404019
         2070.304     0.002412857
         2072.586     0.002425504
         2074.871     0.002445616
         2077.157     0.002455768
         2079.447      0.00246708
          2081.74     0.002485008
         2084.034     0.002500338
         2086.332     0.002509981
         2088.632      0.00252219
         2090.933     0.002537849
          2093.24     0.002541847
         2095.546     0.002554321
         2097.856     0.002571273
         2100.169     0.002577547
         2102.483      0.00259232
         2104.802     0.002604214
         2107.121     0.002613841
         2109.444     0.002618799
         2111.769     0.002635945
         2114.097     0.002633824
         2116.428     0.002653364
          2118.76     0.002657595
         2121.097     0.002666684
         2123.434     0.002675345
         2125.775     0.002682736
         2128.118     0.002691004
         2130.463      0.00269862
         2132.813     0.002701515
         2135.163     0.002710165
         2137.518     0.002709171
         2139.875     0.002719338
         2142.231     0.002721526
         2144.594     0.002730135
         2146.958     0.002727296
         2149.325     0.002732864
         2151.693      0.00274307
         2154.065     0.002750452
          2156.44     0.002754094
         2158.817     0.002753878
         2161.197     0.002754619
         2163.578     0.002751785
         2165.964     0.002753446
         2168.353     0.002752824
         2170.743     0.002748285
         2173.135     0.002759371
         2175.529      0.00276146
         2177.929     0.002755585
         2180.329     0.002752652
         2182.733     0.002753906
         2185.138     0.002747299
         2187.547     0.002749782
         2189.959     0.002742214
         2192.372       0.0027385
         2194.789     0.002735754
         2197.208     0.002729828
         2199.632      0.00272079
         2202.056     0.002731453
         2204.482     0.002744926
         2206.912     0.002753552
         2209.345     0.002766241
         2211.782     0.002775589
         2214.219     0.002782967
          2216.66     0.002794761
         2219.104     0.002805651
         2221.549     0.002813681
         2223.998     0.002818206
         2226.449     0.002826384
         2228.904     0.002836334
         2231.361     0.002843336
          2233.82     0.002843002
         2236.284     0.002846066
         2238.748     0.002846729
         2241.217     0.002849849
         2243.687     0.002854763
         2246.159     0.002851621
         2248.636      0.00285343
         2251.114     0.002852644
         2253.597     0.002850288
          2256.08     0.002847485
         2258.567     0.002844579
         2261.057     0.002839316
         2263.548     0.002833516
         2266.045     0.002820901
         2268.542      0.00281505
         2271.042     0.002815546
         2273.546     0.002806834
         2276.051     0.002801937
         2278.562     0.002782986
         2281.072     0.002779027
         2283.588     0.002762969
         2286.104     0.002758212
         2288.623     0.002741266
         2291.147     0.002722964
         2293.672     0.002715897
         2296.202     0.002695413
         2298.732     0.002678864
         2301.266     0.002664419
         2303.803     0.002641387
         2306.342     0.002625689
         2308.885     0.002611465
         2311.431      0.00259986
         2313.979     0.002563556
          2316.53     0.002551478
         2319.082     0.002530158
         2321.639     0.002500234
         2324.198     0.002474132
          2326.76     0.002456968
         2329.325     0.002435417
         2331.892     0.002402869
         2334.463     0.002379134
         2337.038     0.002350255
         2339.613     0.002325014
         2342.193     0.002296166
         2344.774     0.002265813
         2347.357     0.002236624
         2349.947      0.00220313
         2352.536     0.002171549
         2355.131     0.002141598
         2357.726     0.002111753
         2360.326     0.002081727
         2362.927     0.002045677
         2365.531     0.002010948
          2368.14     0.001978515
         2370.749     0.001947404
         2373.364     0.001915041
         2375.979     0.001877933
         2378.598     0.001843083
          2381.22     0.001809287
         2383.844     0.001773562
         2386.473     0.001738526
         2389.103     0.001704721
         2391.737     0.001670495
         2394.373     0.001634057
         2397.012     0.001598776
         2399.656     0.001566305
           2402.3     0.001536087
         2404.949     0.001499092
           2407.6      0.00146186
         2410.252      0.00142953
          2412.91     0.001397607
          2415.57     0.001363839
         2418.233     0.001331091
         2420.898      0.00129664
         2423.567     0.001267261
         2426.238     0.001240248
         2428.913     0.001207982
         2431.591     0.001177986
         2434.271     0.001147188
         2436.954     0.001116378
         2439.641     0.001089774
         2442.331     0.001057879
         2445.022     0.001032352
         2447.718     0.001004947
         2450.416     9.776916E-4
         2453.117     9.509178E-4
         2455.822     9.240751E-4
         2458.528     9.020992E-4
         2461.239     8.764491E-4
         2463.951     8.518672E-4
         2466.669     8.335092E-4
         2469.387     8.017122E-4
         2472.108     7.796279E-4
         2474.834     7.605330E-4
         2477.561     7.412406E-4
         2480.294     7.216513E-4
         2483.027     7.013762E-4
         2485.764     6.808662E-4
         2488.504     6.601298E-4
         2491.246     6.416028E-4
         2493.994     6.257805E-4
         2496.742     6.097997E-4
         2499.494     5.936325E-4
          2502.25     5.769541E-4
         2505.007     5.600282E-4
          2507.77     5.429015E-4
         2510.533     5.264739E-4
         2513.302     5.134975E-4
         2516.072     5.003912E-4
         2518.844     4.871418E-4
         2521.622     4.736445E-4
         2524.401     4.599509E-4
         2527.185     4.460968E-4
         2529.969     4.321072E-4
         2532.759     4.214036E-4
         2535.551     4.106211E-4
         2538.344     3.992868E-4
         2541.144     3.873457E-4
         2543.946     3.752802E-4
          2546.75     3.631469E-4
         2549.558     3.509446E-4
         2552.367     3.412748E-4
          2555.18     3.320305E-4
         2557.997     3.227326E-4
         2560.817     3.133289E-4
         2563.639     3.037481E-4
         2566.465     2.941075E-4
         2569.294     2.844124E-4
         2572.128     2.763773E-4
         2574.962     2.688745E-4
           2577.8     2.613288E-4
         2580.643     2.537417E-4
         2583.486     2.461515E-4
         2586.336     2.385096E-4
         2589.186     2.308325E-4
         2592.039     2.244813E-4
         2594.897     2.186365E-4
         2597.757     2.127633E-4
         2600.622     2.068228E-4
         2603.487     2.007563E-4
         2606.357     1.946512E-4
         2609.231     1.885104E-4
         2612.106     1.834606E-4
         2614.985     1.787898E-4
          2617.87     1.740884E-4
         2620.754     1.693372E-4
         2623.643     1.644795E-4
         2626.536     1.595929E-4
         2629.431     1.546772E-4
         2632.328     1.506878E-4
         2635.232     1.469036E-4
         2638.135     1.431001E-4
         2641.045     1.392854E-4
         2643.955     1.354805E-4
          2646.87     1.316503E-4
         2649.788     1.277971E-4
         2652.708     1.247389E-4
         2655.633     1.217227E-4
          2658.56     1.186908E-4
          2661.49     1.156170E-4
         2664.424     1.125028E-4
          2667.36     1.093712E-4
         2670.302     1.062938E-4
         2673.244     1.038717E-4
         2676.193     1.014318E-4
         2679.142     9.897934E-5
         2682.094     9.645131E-5
         2685.052     9.388041E-5
         2688.012     9.129521E-5
         2690.975     8.890473E-5
          2693.94     8.693103E-5
          2696.91     8.494416E-5
         2699.883     8.294497E-5
         2702.858     8.102417E-5
         2705.839     7.908548E-5
         2708.822     7.712800E-5
         2711.807     7.545498E-5
         2714.796     7.396258E-5
         2717.789     7.245452E-5
         2720.785     7.090642E-5
         2723.785     6.927308E-5
         2726.788     6.762310E-5
         2729.792     6.595725E-5
         2732.802     6.468582E-5
         2735.814     6.343195E-5
          2738.83     6.216512E-5
         2741.849     6.085227E-5
         2744.872     5.950500E-5
         2747.898     5.814410E-5
         2750.926     5.682549E-5
         2753.958     5.562496E-5
         2756.994     5.442069E-5
         2760.034     5.321206E-5
         2763.076     5.195453E-5
         2766.121     5.069372E-5
         2769.172     4.942761E-5
         2772.223     4.833083E-5
         2775.281     4.729382E-5
         2778.339     4.625460E-5
           2781.4     4.521675E-5
         2784.468     4.418033E-5
         2787.536     4.314172E-5
          2790.61     4.214172E-5
         2793.685     4.131265E-5
         2796.765     4.048067E-5
         2799.848     3.964622E-5
         2802.933     3.876505E-5
         2806.025     3.787812E-5
         2809.117     3.698944E-5
         2812.213     3.622921E-5
         2815.314     3.551929E-5
         2818.417     3.480734E-5
         2821.524     3.406993E-5
         2824.633     3.330655E-5
         2827.749     3.254021E-5
         2830.865     3.181127E-5
         2833.985     3.118115E-5
         2837.109     3.054929E-5
         2840.236     2.991848E-5
         2843.368     2.931708E-5
         2846.501     2.871459E-5
         2849.641     2.810982E-5
         2852.781     2.758768E-5
         2855.924     2.707494E-5
         2859.074     2.656028E-5
         2862.226     2.601878E-5
         2865.381     2.546513E-5
          2868.54     2.490994E-5
         2871.701     2.441771E-5
         2874.866     2.397910E-5
         2878.036     2.353931E-5
         2881.208     2.308914E-5
         2884.385     2.262266E-5
         2887.563     2.215519E-5
         2890.748     2.171155E-5
         2893.935     2.135023E-5
         2897.123     2.098816E-5
         2900.317     2.061549E-5
         2903.515     2.015686E-5
         2906.715     1.969905E-5
          2909.92     1.924199E-5
         2913.126     1.889226E-5
         2916.338     1.854565E-5
         2919.552     1.819967E-5
         2922.773     1.781201E-5
         2925.993     1.741865E-5
         2929.217     1.702600E-5
         2932.448     1.668863E-5
         2935.679     1.636973E-5
         2938.916     1.605126E-5
         2942.155     1.572536E-5
         2945.399     1.539602E-5
         2948.646     1.506730E-5
         2951.895     1.477437E-5
         2955.151     1.450674E-5
         2958.407     1.423989E-5
         2961.668     1.396728E-5
         2964.933     1.368936E-5
           2968.2     1.341211E-5
         2971.474     1.315679E-5
         2974.748     1.292857E-5
         2978.027     1.270070E-5
          2981.31     1.246843E-5
         2984.595     1.222943E-5
         2987.887     1.199072E-5
         2991.179     1.175703E-5
         2994.477     1.153140E-5
         2997.778     1.130627E-5
         3001.083     1.108549E-5
         3004.391     1.087317E-5
         3007.702     1.066143E-5
         3011.019     1.046094E-5
         3014.337     1.028587E-5
         3017.658     1.011119E-5
         3020.987     9.933151E-6
         3024.317     9.747166E-6
         3027.651     9.561609E-6
         3030.987     9.387065E-6
         3034.328     9.237839E-6
         3037.673     9.088950E-6
         3041.022     8.933162E-6
         3044.375     8.761301E-6
         3047.731     8.589865E-6
         3051.089     8.426549E-6
         3054.454     8.279368E-6
          3057.82     8.132678E-6
         3061.191     7.990442E-6
         3064.565     7.856150E-6
         3067.944     7.722184E-6
         3071.326     7.583952E-6
          3074.71     7.439007E-6
           3078.1     7.294372E-6
         3081.495     7.170608E-6
          3084.89     7.073389E-6
         3088.292     6.976310E-6
         3091.696     6.862123E-6
         3095.102     6.730710E-6
         3098.516     6.599508E-6
          3101.93     6.503445E-6
         3105.351     6.433759E-6
         3108.773     6.363771E-6
           3112.2     6.270740E-6
         3115.631     6.164554E-6
         3119.064     6.057870E-6
         3122.504     5.976449E-6
         3125.945     5.904393E-6
         3129.391     5.831912E-6
         3132.841     5.759010E-6
         3136.294     5.685711E-6
         3139.752     5.612025E-6
         3143.211     5.549253E-6
         3146.678     5.486960E-6
         3150.145     5.424905E-6
         3153.618     5.374102E-6
         3157.095     5.323029E-6
         3160.573     5.267671E-6
         3164.059     5.191421E-6
         3167.546     5.114852E-6
         3171.039     5.041473E-6
         3174.533     4.976455E-6
         3178.031     4.911099E-6
         3181.536     4.850833E-6
         3185.044     4.797339E-6
         3188.555     4.743563E-6
         3192.068     4.689504E-6
         3195.587     4.635110E-6
          3199.11     4.580430E-6
         3202.637     4.525460E-6
         3206.167     4.470204E-6
           3209.7     4.414683E-6
         3213.239     4.358894E-6
         3216.781     4.302819E-6
         3220.327     4.248820E-6
         3223.877     4.217969E-6
         3227.431     4.186940E-6
         3230.989     4.148515E-6
         3234.549     4.091081E-6
         3238.115     4.033316E-6
         3241.685     3.987664E-6
         3245.259     3.955690E-6
         3248.836     3.923539E-6
         3252.418     3.873311E-6
         3256.003     3.814178E-6
         3259.591     3.754765E-6
         3263.186     3.706835E-6
         3266.781     3.660225E-6
         3270.383     3.614776E-6
         3273.988     3.581177E-6
         3277.596     3.547412E-6
         3281.209     3.513433E-6
         3284.826     3.479249E-6
         3288.449     3.444861E-6
         3292.073     3.402528E-6
           3295.7     3.354118E-6
         3299.335     3.305403E-6
          3302.97     3.267759E-6
         3306.614     3.232409E-6
         3310.257     3.197885E-6
         3313.906     3.176109E-6
         3317.559     3.154210E-6
         3321.215     3.127545E-6
         3324.878     3.091320E-6
         3328.542     3.054940E-6
         3332.211     3.018370E-6
         3335.885     2.981619E-6
          3339.56     2.944691E-6
         3343.244     2.920101E-6
         3346.927     2.897109E-6
         3350.619     2.869148E-6
         3354.311     2.817113E-6
         3358.007     2.764803E-6
          3361.71     2.732250E-6
         3365.415     2.723001E-6
         3369.126     2.713680E-6
         3372.839     2.681994E-6
         3376.557     2.643228E-6
         3380.279     2.606462E-6
         3384.004     2.596801E-6
         3387.736     2.587066E-6
         3391.469     2.559776E-6
         3395.208     2.505260E-6
         3398.953     2.450425E-6
         3402.698     2.416935E-6
         3406.449     2.391650E-6
         3410.204     2.366223E-6
         3413.964     2.340661E-6
         3417.727     2.314960E-6
         3421.493     2.289139E-6
         3425.265     2.263185E-6
         3429.043     2.237072E-6
         3432.821     2.210865E-6
         3436.606     2.184506E-6
         3440.394     2.157998E-6
         3444.185     2.131367E-6
         3447.984     2.104557E-6
         3451.783     2.084956E-6
         3455.588     2.073550E-6
         3459.398     2.062073E-6
         3463.211     2.037277E-6
         3467.029     2.009846E-6
          3470.85     1.982282E-6
         3474.678     1.954563E-6
         3478.506     1.926714E-6
         3482.339     1.908483E-6
          3486.18     1.896393E-6
         3490.023     1.884234E-6
         3493.871     1.872010E-6
          3497.72     1.859715E-6
         3501.576     1.840709E-6
         3505.437     1.811975E-6
         3509.301     1.783075E-6
          3513.17     1.767477E-6
         3517.041     1.754770E-6
         3520.918     1.741978E-6
         3524.799     1.729114E-6
         3528.685     1.716170E-6
         3532.575     1.703178E-6
         3536.468     1.690129E-6
         3540.368     1.675398E-6
         3544.269     1.645343E-6
         3548.176     1.615099E-6
         3552.088     1.593738E-6
         3556.004     1.580190E-6
         3559.924     1.566557E-6
         3563.846     1.552872E-6
         3567.777     1.539089E-6
         3571.708     1.525234E-6
         3575.644     1.511297E-6
         3579.588     1.497260E-6
         3583.534     1.483165E-6
         3587.484     1.468984E-6
         3591.439     1.454717E-6
         3595.396     1.440371E-6
          3599.36     1.425928E-6
         3603.328     1.411414E-6
         3607.301     1.396812E-6
         3611.277     1.382117E-6
         3615.256     1.367328E-6
         3619.242     1.352441E-6
         3623.234     1.337485E-6
         3627.226     1.322457E-6
         3631.223     1.307332E-6
         3635.228     1.292089E-6
         3639.237     1.276752E-6
         3643.247     1.261338E-6
         3647.261     1.245828E-6
         3651.284     1.236093E-6
         3655.307     1.238884E-6
         3659.335     1.241682E-6
         3663.371     1.213415E-6
         3667.408     1.178863E-6
         3671.453     1.157528E-6
         3675.498     1.160149E-6
         3679.552     1.162780E-6
         3683.606     1.148603E-6
         3687.665     1.132245E-6
         3691.732     1.115769E-6
           3695.8     1.099209E-6
         3699.876     1.082533E-6
         3703.953     1.065771E-6
         3708.039     1.048890E-6
         3712.124     1.041985E-6
         3716.215     1.044356E-6
         3720.313     1.045243E-6
         3724.413     1.028076E-6
         3728.521     1.010785E-6
         3732.629     1.006000E-6
         3736.746     1.008295E-6
         3740.863     1.006440E-6
         3744.985     9.888528E-7
         3749.116     9.711418E-7
         3753.247     9.690729E-7
         3757.386     9.712866E-7
         3761.526     9.660696E-7
         3765.675     9.480245E-7
         3769.824     9.298897E-7
         3773.978     9.116562E-7
         3778.141     8.932940E-7
         3782.304     8.861757E-7
         3786.473     8.881902E-7
         3790.648     8.870045E-7
         3794.824     8.683061E-7
          3799.01     8.494769E-7
         3803.196     8.464761E-7
         3807.389     8.484016E-7
         3811.586     8.423947E-7
          3815.79     8.232261E-7
         3819.994     8.039610E-7
         3824.203     8.057394E-7
         3828.419     8.075512E-7
          3832.64     7.960144E-7
         3836.865     7.763825E-7
         3841.095     7.621986E-7
         3845.331     7.639125E-7
         3849.568     7.656287E-7
          3853.81     7.673396E-7
         3858.058     7.690539E-7
         3862.312     7.588887E-7
         3866.572     7.386358E-7
         3870.832     7.225796E-7
         3875.099     7.241830E-7
         3879.369     7.257889E-7
         3883.646     7.084488E-7
         3887.927     6.877181E-7
         3892.213     6.784155E-7
         3896.504     6.799095E-7
           3900.8     6.814053E-7
           3905.1     6.828959E-7
         3909.403     6.843891E-7
         3913.712     6.662906E-7
         3918.027     6.449255E-7
         3922.346     6.358655E-7
          3926.67     6.372364E-7
         3930.999     6.386101E-7
         3935.333     6.399850E-7
         3939.669     6.413625E-7
         3944.012     6.212390E-7
          3948.36     5.992214E-7
         3952.712     5.916692E-7
          3957.07     5.929237E-7
         3961.432     5.941748E-7
         3965.799     5.954163E-7
         3970.169     5.957423E-7
         3974.546     5.731954E-7
         3978.927     5.505253E-7
         3983.314     5.458119E-7
         3987.705     5.469403E-7
         3992.101     5.480630E-7
           3996.5     5.491788E-7
         4000.906     5.500445E-7
         4005.316     5.499325E-7
         4009.732     5.498198E-7
         4014.152     5.268729E-7
         4018.577     5.024337E-7
         4023.008     4.944965E-7
          4027.44     4.943739E-7
          4031.88     4.942470E-7
         4036.325     4.941144E-7
         4040.775     4.939793E-7
         4045.229     4.938360E-7
         4049.689     4.936923E-7
         4054.153     4.707648E-7
          4058.62     4.461290E-7
         4063.094     4.384214E-7
         4067.574     4.382754E-7
         4072.058     4.381251E-7
         4076.547     4.379696E-7
         4081.041     4.378119E-7
         4085.538     4.376477E-7
         4090.042     4.374829E-7
         4094.548     4.373161E-7
         4099.064     4.371484E-7
         4103.583     4.173984E-7
         4108.107     3.925240E-7
         4112.636     3.820270E-7
         4117.165     3.818649E-7
         4121.706     3.816977E-7
          4126.25     3.815226E-7
         4130.799     3.813467E-7
         4135.353     3.811689E-7
         4139.911     3.809908E-7
         4144.473     3.808109E-7
          4149.04     3.806307E-7
         4153.616     3.607891E-7
         4158.195     3.357314E-7
         4162.779     3.257587E-7
         4167.366     3.255912E-7
         4171.962     3.254206E-7
         4176.559     3.252463E-7
         4181.163     3.250713E-7
         4185.772     3.248953E-7
         4190.385     3.247185E-7
         4195.006     3.245361E-7
         4199.629     3.243534E-7
         4204.261     3.246629E-7
         4208.894     3.250157E-7
         4213.531     3.253682E-7
         4218.178     3.257216E-7
         4222.826     3.107127E-7
         4227.484     2.857054E-7
         4232.142     2.723073E-7
          4236.81     2.725982E-7
         4241.478     2.728879E-7
         4246.151     2.731747E-7
         4250.835     2.734623E-7
         4255.519     2.737495E-7
         4260.212     2.740372E-7
         4264.907     2.743205E-7
         4269.606     2.746043E-7
         4274.315     2.748883E-7
         4279.025     2.751726E-7
         4283.744     2.754537E-7
         4288.464     2.757340E-7
         4293.194     2.760145E-7
         4297.925     2.762949E-7
         4302.661     2.618560E-7
         4307.406     2.358420E-7
         4312.152     2.217019E-7
         4316.909     2.219238E-7
         4321.665     2.221456E-7
         4326.432     2.223678E-7
         4331.199     2.225899E-7
         4335.971     2.228119E-7
         4340.753     2.230339E-7
         4345.537     2.232529E-7
          4350.33     2.234723E-7
         4355.123     2.236883E-7
         4359.926     2.239050E-7
          4364.73     2.241244E-7
          4369.54     2.243441E-7
         4374.359     2.245612E-7
         4379.179     2.247781E-7
         4384.009     2.249951E-7
          4388.84     2.252123E-7
          4393.68     2.254271E-7
         4398.521     2.256410E-7
         4403.368     2.068393E-7
         4408.225     1.795880E-7
         4413.082     1.697180E-7
          4417.95     1.698791E-7
         4422.817     1.700401E-7
         4427.696     1.702015E-7
         4432.574     1.703614E-7
         4437.458     1.705202E-7
         4442.353     1.706805E-7
         4447.248     1.708420E-7
         4452.153     1.710026E-7
         4457.059     1.711618E-7
          4461.97     1.713211E-7
         4466.891     1.714807E-7
         4471.813     1.716403E-7
         4476.745     1.718001E-7
         4481.678     1.719600E-7
         4486.618     1.721201E-7
         4491.564     1.722803E-7
         4496.514     1.724404E-7
         4501.473     1.728027E-7
         4506.433     1.736427E-7
         4511.401     1.744836E-7
         4516.375     1.753238E-7
         4521.355     1.761662E-7
         4526.337     1.770107E-7
         4531.325     1.778556E-7
          4536.32     1.787003E-7
         4541.321     1.795460E-7
         4546.328     1.803928E-7
         4551.339     1.731498E-7
         4556.357     1.435080E-7
          4561.38     1.219635E-7
         4566.406     1.225307E-7
          4571.44     1.230990E-7
         4576.479     1.236680E-7
         4581.527     1.242380E-7
         4586.575     1.248082E-7
         4591.632     1.253795E-7
         4596.691     1.259512E-7
         4601.758     1.265240E-7
         4606.832     1.270975E-7
          4611.91     1.276718E-7
         4616.994     1.282468E-7
         4622.084     1.288218E-7
          4627.18     1.293965E-7
         4632.278     1.299723E-7
         4637.385     1.305505E-7
         4642.497     1.311293E-7
         4647.615     1.317089E-7
         4652.738     1.322892E-7
         4657.868     1.328703E-7
         4663.002     1.334509E-7
         4668.141     1.340312E-7
         4673.287     1.346138E-7
         4678.438     1.351980E-7
         4683.596     1.357830E-7
         4688.759     1.363687E-7
         4693.928     1.369535E-7
           4699.1     1.375383E-7
         4704.281     1.381259E-7
         4709.467     1.387147E-7
         4714.658     1.393023E-7
         4719.856     1.398906E-7
         4725.059     1.404816E-7
         4730.268     1.410733E-7
          4735.48     1.416635E-7
         4740.701     1.422551E-7
         4745.927     1.428493E-7
         4751.159     1.434438E-7
         4756.396     1.440372E-7
          4761.64     1.446321E-7
         4766.889     1.452295E-7
         4772.142     1.458273E-7
         4777.402     1.464263E-7
         4782.669     1.470249E-7
         4787.941     1.476230E-7
          4793.22     1.482234E-7
         4798.504     1.488255E-7
         4803.791     1.494280E-7
         4809.087     1.500317E-7
         4814.389     1.175800E-7
         4819.696     7.791880E-8
         4825.009     7.592146E-8
         4830.328     7.622487E-8
         4835.653     7.652867E-8
         4840.981     7.683272E-8
         4846.318     7.713739E-8
         4851.661     7.744201E-8
         4857.009     7.774613E-8
         4862.364     7.805124E-8
         4867.724     7.835750E-8
          4873.09     7.866412E-8
         4878.457     7.897080E-8
         4883.838     7.927839E-8
         4889.222     7.958624E-8
         4894.612     7.989446E-8
         4900.008     8.020309E-8
         4905.409     8.051342E-8
         4910.814     8.082382E-8
         4916.228     8.113368E-8
         4921.648     8.144397E-8
         4927.074     8.175463E-8
         4932.505     8.206569E-8
          4937.94     8.237696E-8
         4943.386     8.268987E-8
         4948.833     8.300342E-8
         4954.289     8.331751E-8
          4959.75     8.363200E-8
         4965.216     8.394543E-8
         4970.692     8.425968E-8
         4976.169     8.457530E-8
         4981.658     8.489168E-8
         4987.146     8.520809E-8
         4992.642     8.552494E-8
         4998.148     8.584254E-8
         5003.656     8.619980E-8
         5009.174     8.657799E-8
         5014.694     8.695636E-8
         5020.219     8.733530E-8
         5025.756     8.771651E-8
         5031.294     8.809754E-8
         5036.843     8.847839E-8
         5042.394     8.886001E-8
         5047.955     8.924332E-8
         5053.517     8.962582E-8
         5059.085     9.000829E-8
         5064.665     9.039292E-8
         5070.246     9.077799E-8
         5075.838     9.116395E-8
         5081.431     9.154964E-8
         5087.036     9.193509E-8
         5092.641     9.232141E-8
         5098.252     9.270910E-8
         5103.875     9.309769E-8
         5109.499     9.348643E-8
         5115.134     9.387612E-8
         5120.771     9.426599E-8
         5126.418     9.465669E-8
         5132.067     9.504702E-8
         5137.722     9.543687E-8
         5143.389     9.582856E-8
         5149.056     9.622108E-8
         5154.735     9.661456E-8
         5160.415     9.700818E-8
         5166.107     9.740268E-8
         5171.799     9.779734E-8
         5177.498     9.819261E-8
         5183.208     9.858783E-8
         5188.919     9.898246E-8
         5194.643     9.937933E-8
         5200.366     9.977656E-8
         5206.102     1.001732E-7
         5211.838     1.005706E-7
         5217.581     1.009695E-7
         5223.336     1.013685E-7
         5229.091     1.017669E-7
         5234.859     1.021662E-7
         5240.627     1.025657E-7
         5246.407     1.029660E-7
         5252.188     1.033672E-7
         5257.975     1.037701E-7
         5263.774     1.041715E-7
         5269.574     1.045717E-7
         5275.383     1.049744E-7
         5281.199     1.053779E-7
         5287.018     1.057816E-7
          5292.85     1.061854E-7
         5298.682     1.065883E-7
         5304.523     1.069920E-7
         5310.371     1.073964E-7
         5316.228     1.078032E-7
         5322.085     1.082088E-7
          5327.95     1.086125E-7
         5333.826     1.090183E-7
         5339.703     1.094249E-7
          5345.59     1.098323E-7
         5351.483     1.102397E-7
         5357.385     1.106463E-7
         5363.289     1.110530E-7
         5369.198     1.114603E-7
         5375.117     5.462237E-8
         5381.042     1.170429E-8
         5386.978     7.862478E-8
         5392.914     8.014109E-8
         5398.858     1.295705E-8
         5404.807              0.
         5410.766              0.
          5416.73              0.
         5422.702              0.
          5428.68              0.
         5434.665              0.
         5440.656              0.
         5446.651              0.
         5452.655              0.
         5458.666              0.
         5464.684              0.
         5470.708              0.
         5476.739              0.
         5482.777              0.
         5488.818              0.
         5494.869              0.
         5500.926              0.
         5506.991              0.
         5513.062              0.
         5519.139              0.
         5525.221              0.
         5531.312              0.
          5537.41              0.
         5543.514              0.
         5549.625              0.
         5555.743              0.
         5561.868              0.
         5567.996              0.
         5574.134              0.
         5580.279              0.
         5586.431              0.
          5592.59              0.
         5598.755              0.
         5604.927              0.
         5611.103              0.
         5617.289              0.
         5623.481              0.
         5629.681              0.
         5635.887              0.
           5642.1              0.
         5648.316              0.
         5654.543              0.
         5660.777              0.
         5667.018              0.
         5673.265              0.
         5679.519              0.
          5685.78              0.
         5692.045              0.
          5698.32              0.
         5704.602              0.
         5710.891              0.
         5717.187              0.
         5723.489              0.
         5729.799              0.
         5736.112              0.
         5742.436              0.
         5748.766              0.
         5755.104              0.
         5761.448              0.
           5767.8              0.
         5774.155              0.
         5780.521              0.
         5786.893              0.
         5793.272              0.
         5799.659              0.
         5806.053              0.
         5812.453              0.
         5818.858              0.
         5825.272              0.
         5831.694              0.
         5838.123              0.
         5844.559              0.
         5851.002              0.
         5857.453              0.
         5863.907              0.
         5870.368              0.
         5876.843              0.
         5883.321              0.
         5889.807              0.
           5896.3              0.
           5902.8              0.
         5909.304              0.
         5915.819              0.
          5922.34              0.
         5928.869              0.
         5935.405              0.
         5941.945              0.
         5948.492              0.
         5955.053              0.
         5961.618              0.
          5968.19              0.
         5974.767              0.
         5981.356              0.
         5987.947              0.
         5994.548              0.
         6001.157              0.
         6007.769              0.
         6014.396              0.
         6021.022              0.
         6027.663              0.
         6034.308              0.
         6040.954              0.
         6047.617              0.
          6054.28              0.
         6060.958              0.
         6067.636              0.
         6074.329              0.
         6081.021              0.
         6087.722              0.
         6094.437              0.
         6101.152              0.
         6107.878              0.
         6114.611              0.
         6121.355              0.
           6128.1              0.
         6134.853              0.
         6141.616              0.
         6148.386              0.
         6155.167              0.
          6161.95              0.
         6168.746              0.
          6175.54              0.
         6182.348              0.
         6189.163              0.
         6195.986              0.
          6202.82              0.
         6209.655              0.
         6216.497              0.
          6223.35              0.
         6230.211              0.
         6237.083              0.
         6243.955              0.
         6250.838              0.
         6257.729              0.
         6264.624              0.
          6271.53              0.
         6278.444              0.
         6285.366              0.
         6292.294              0.
         6299.231              0.
         6306.176              0.
         6313.124              0.
         6320.084              0.
         6327.051              0.
         6334.026              0.
         6341.009              0.
         6347.999              0.
         6354.994              0.
            6362.              0.
         6369.013              0.
         6376.034              0.
         6383.063              0.
           6390.1              0.
         6397.145              0.
         6404.193              0.
         6411.253              0.
         6418.321              0.
         6425.397              0.
          6432.48              0.
         6439.571              0.
          6446.67              0.
         6453.774              0.
         6460.889              0.
         6468.011              0.
         6475.142              0.
          6482.28              0.
         6489.426              0.
         6496.576              0.
         6503.738              0.
         6510.908              0.
         6518.085              0.
         6525.271              0.
         6532.465              0.
         6539.666              0.
         6546.872              0.
         6554.089              0.
         6561.314              0.
         6568.548              0.
         6575.789              0.
         6583.038              0.
         6590.295              0.
         6597.557              0.
          6604.83              0.
         6612.111              0.
           6619.4              0.
         6626.698              0.
         6634.003              0.
         6641.316              0.
         6648.634              0.
         6655.964              0.
         6663.301              0.
         6670.647              0.
         6678.001              0.
         6685.363              0.
         6692.729              0.
         6700.107              0.
         6707.494              0.
         6714.888              0.
         6722.291              0.
         6729.701              0.
          6737.12              0.
         6744.543              0.
         6751.979              0.
         6759.422              0.
         6766.874              0.
         6774.333              0.
         6781.802              0.
         6789.278              0.
         6796.759              0.
         6804.251              0.
         6811.752              0.
         6819.262              0.
          6826.78              0.
         6834.306              0.
         6841.836              0.
         6849.378              0.
         6856.929              0.
         6864.488              0.
         6872.056              0.
         6879.632              0.
         6887.216              0.
         6894.805              0.
         6902.405              0.
         6910.015              0.
         6917.632              0.
         6925.258              0.
         6932.893              0.
         6940.536              0.
         6948.183              0.
         6955.839              0.
         6963.511              0.
         6971.188              0.
         6978.873              0.
         6986.566              0.
         6994.261     1.578717E-8
         7001.975     3.694604E-8
         7009.694     3.679725E-8
         7017.422     3.664796E-8
         7025.158     3.649951E-8
         7032.902     3.635196E-8
         7040.652     3.620526E-8
          7048.41     3.605811E-8
         7056.184     3.591183E-8
         7063.962     3.576612E-8
          7071.75     3.562072E-8
         7079.542     3.547562E-8
          7087.35     3.533073E-8
          7095.16     3.518681E-8
         7102.981     3.508788E-8
         7110.812     3.506095E-8
         7118.647     3.503351E-8
         7126.499     3.500573E-8
         7134.351     3.497795E-8
          7142.22     3.494980E-8
         7150.089     3.492074E-8
         7157.968     3.489201E-8
         7165.863     3.486289E-8
         7173.758     3.483379E-8
         7181.671     3.480447E-8
         7189.584     3.477400E-8
         7197.514     3.474400E-8
         7205.444     3.469960E-8
         7213.384     3.464852E-8
          7221.34     3.459728E-8
         7229.297     3.454646E-8
         7237.271     3.449457E-8
         7245.245     3.444293E-8
         7253.236     3.439120E-8
         7261.228     3.433916E-8
         7269.229     3.428692E-8
         7277.243     3.423511E-8
         7285.265     3.418257E-8
           7293.3     3.412978E-8
         7301.336     3.404729E-8
         7309.381     3.381486E-8
         7317.439     3.358410E-8
         7325.506     3.335368E-8
         7333.586     3.312413E-8
         7341.667     3.289613E-8
         7349.764     3.266872E-8
         7357.863     3.244246E-8
          7365.97     3.221770E-8
          7374.09     3.199349E-8
         7382.219     3.176995E-8
         7390.362     3.154769E-8
         7398.505     3.132663E-8
         7406.661     3.131544E-8
         7414.826     3.135016E-8
         7422.996     3.138400E-8
         7431.184     3.141761E-8
         7439.372     3.145116E-8
         7447.573     3.148309E-8
         7455.783     3.151472E-8
         7464.002     3.154580E-8
         7472.231     3.157607E-8
         7480.464     3.160548E-8
          7488.71     3.163414E-8
         7496.966     3.166274E-8
         7505.231     3.155401E-8
         7513.505     3.136633E-8
         7521.788     3.117924E-8
         7530.076     3.099280E-8
         7538.377     3.080688E-8
         7546.688     3.062150E-8
         7555.007     3.043669E-8
         7563.335     3.025243E-8
         7571.673     3.006868E-8
         7580.021     2.988559E-8
         7588.373     2.970320E-8
         7596.738     2.952129E-8
         7605.113     2.945531E-8
         7613.497     2.946248E-8
          7621.89     2.946893E-8
         7630.292     2.947475E-8
         7638.704     2.947984E-8
         7647.121     2.948423E-8
         7655.551     2.948799E-8
         7663.991     2.949105E-8
         7672.439     2.949343E-8
         7680.897     2.949515E-8
         7689.365     2.949613E-8
         7697.838     2.949652E-8
         7706.324     2.996611E-8
         7714.819     3.059200E-8
         7723.324     3.121281E-8
         7731.838     3.182850E-8
         7740.362     3.243916E-8
         7748.895     3.304473E-8
         7757.434     3.364502E-8
         7765.985     3.424051E-8
         7774.546     3.483094E-8
         7783.117     3.541637E-8
         7791.697     3.599675E-8
         7800.287     3.655660E-8
         7808.886     3.666302E-8
          7817.49     3.676763E-8
         7826.108     3.687076E-8
         7834.736     3.697228E-8
         7843.373     3.707217E-8
          7852.02     3.717045E-8
         7860.676     3.726710E-8
         7869.337     3.736213E-8
         7878.013     3.745554E-8
         7886.697     3.754743E-8
         7895.392     3.763774E-8
         7904.096     3.780185E-8
         7912.809     3.804834E-8
         7921.532     3.829205E-8
         7930.261     3.853290E-8
         7939.003     3.877110E-8
         7947.755     3.900665E-8
         7956.517     3.923945E-8
         7965.288     3.946955E-8
         7974.069     3.969694E-8
          7982.86     3.992163E-8
         7991.656     4.014352E-8
         8000.466     4.033249E-8
         8009.286     3.997670E-8
         8018.115     3.962259E-8
         8026.954     3.927015E-8
         8035.803     3.891932E-8
         8044.658     3.857025E-8
         8053.526     3.822263E-8
         8062.404     3.787666E-8
         8071.292     3.753231E-8
          8080.19     3.718959E-8
         8089.098     3.684846E-8
         8098.016     3.650901E-8
         8106.938     3.680307E-8
         8115.875     3.727100E-8
         8124.822     3.773066E-8
         8133.779     3.818212E-8
         8142.746     3.862542E-8
         8151.723     3.906053E-8
         8160.709     3.948749E-8
         8169.701     3.990606E-8
         8178.708     4.031668E-8
         8187.724     4.071921E-8
          8196.75     4.111364E-8
         8205.786     4.123054E-8
         8214.832     4.119239E-8
         8223.884     4.115158E-8
          8232.95     4.110811E-8
         8242.026     4.106201E-8
         8251.112     4.101329E-8
         8260.208     4.096190E-8
         8269.314     4.090789E-8
         8278.431     4.085128E-8
         8287.552     4.079210E-8
         8296.688     4.073025E-8
         8305.835     4.085452E-8
         8314.991     4.108005E-8
         8324.153     4.129884E-8
         8333.334     4.151123E-8
         8342.521     4.171697E-8
         8351.713     4.195256E-8
          8360.92     4.234344E-8
         8370.138     4.273068E-8
         8379.365     4.311426E-8
         8388.603     4.349413E-8
          8397.85     4.387018E-8
         8407.104     4.405386E-8
         8416.371     4.417777E-8
         8425.649     4.429902E-8
         8434.934     4.441756E-8
         8444.236     4.453350E-8
         8453.546     4.464662E-8
         8462.865     4.475698E-8
         8472.189     4.486451E-8
         8481.525     4.496919E-8
          8490.88     4.507110E-8
          8500.24     4.518244E-8
         8509.611     4.575854E-8
         8518.987     4.632786E-8
         8528.384     4.689117E-8
          8537.78     4.744721E-8
         8547.188     4.799647E-8
         8556.615     4.853949E-8
         8566.043     4.907493E-8
         8575.486     4.960363E-8
          8584.94     5.012520E-8
         8594.409     5.063976E-8
         8603.879     5.083379E-8
         8613.359     5.057361E-8
         8622.854     5.031172E-8
          8632.36     5.004827E-8
         8641.882     4.978316E-8
         8651.403     4.951546E-8
         8660.937     4.923872E-8
         8670.484     4.896039E-8
         8680.043     4.868063E-8
         8689.611     4.839939E-8
         8699.191     4.811665E-8
         8708.781     4.753877E-8
         8718.382     4.693520E-8
         8727.988     4.633352E-8
          8737.61     4.573312E-8
         8747.242     4.513438E-8
         8756.886     4.453729E-8
         8766.539     4.394200E-8
         8776.203     4.334846E-8
         8785.879     4.275665E-8
          8795.56     4.216702E-8
         8805.256     4.191279E-8
         8814.963     4.193754E-8
         8824.681     4.195749E-8
         8834.408     4.197264E-8
         8844.147     4.198293E-8
         8853.893     4.198827E-8
         8863.653     4.198867E-8
         8873.425     4.198406E-8
         8883.207     4.197435E-8
            8893.     4.195953E-8
         8902.804     4.185219E-8
         8912.618     4.152377E-8
         8922.438     4.119412E-8
         8932.274     4.086293E-8
         8942.122     4.053026E-8
         8951.979     4.019481E-8
         8961.849     3.985238E-8
         8971.728     3.950867E-8
         8981.618     3.916369E-8
         8991.515     3.881755E-8
         9001.427     3.851089E-8
         9011.351     3.844425E-8
         9021.284     3.837248E-8
         9031.229     3.829559E-8
         9041.186     3.821345E-8
         9051.147     3.812614E-8
         9061.126     3.803348E-8
         9071.115     3.793548E-8
         9081.115     3.783207E-8
         9091.126     3.772322E-8
         9101.148     3.760634E-8
         9111.182     3.746441E-8
         9121.221     3.731708E-8
         9131.276     3.716467E-8
         9141.343     3.700672E-8
          9151.42     3.684367E-8
         9161.509     3.667495E-8
         9171.608     3.650106E-8
         9181.719     3.632145E-8
         9191.836     3.613660E-8
          9201.97     3.583868E-8
         9212.113     3.509742E-8
          9222.27     3.436095E-8
         9232.436     3.362981E-8
         9242.613     3.290405E-8
         9252.798     3.218273E-8
         9262.998     3.146272E-8
          9273.21     3.074856E-8
         9283.433     3.004030E-8
         9293.667     2.933792E-8
         9303.912     2.890433E-8
         9314.169     2.889114E-8
         9324.432     2.886767E-8
         9334.711     2.883381E-8
         9345.002     2.878950E-8
         9355.304     2.873466E-8
         9365.617     2.866900E-8
         9375.941     2.859263E-8
         9386.278     2.850551E-8
          9396.62     2.840750E-8
         9406.979     2.787106E-8
          9417.35     2.713160E-8
         9427.731     2.639947E-8
         9438.124     2.567457E-8
         9448.529     2.495717E-8
          9458.94     2.424757E-8
         9469.368     2.354521E-8
         9479.807     2.285055E-8
         9490.258     2.216359E-8
          9500.72     2.152110E-8
         9511.193     2.137544E-8
         9521.679     2.122522E-8
          9532.17     2.107054E-8
         9542.679     2.091124E-8
         9553.198     2.074742E-8
         9563.729     2.057909E-8
         9574.272     2.040627E-8
         9584.828     2.022896E-8
         9595.395     2.004715E-8
         9605.967     1.984082E-8
         9616.557     1.961532E-8
         9627.158     1.938655E-8
         9637.771     1.915459E-8
         9648.396     1.891954E-8
         9659.032     1.868115E-8
         9669.681     1.843955E-8
         9680.335     1.819490E-8
         9691.007     1.794696E-8
          9701.69     1.769305E-8
         9712.386     1.742140E-8
         9723.093     1.714733E-8
         9733.812     1.687084E-8
         9744.536     1.659211E-8
         9755.279     1.630631E-8
         9766.033     1.601370E-8
           9776.8     1.571898E-8
         9787.577     1.542221E-8
         9798.367     1.512336E-8
         9809.169     1.486139E-8
         9819.978     1.460255E-8
         9830.803     1.433927E-8
         9841.641     1.407190E-8
          9852.49     1.380032E-8
         9863.352     1.352469E-8
         9874.225     1.324495E-8
          9885.11     1.296117E-8
         9896.003     1.267352E-8
         9906.912     1.217093E-8
         9917.828     1.155914E-8
         9928.767     1.096303E-8
         9939.713     1.038321E-8
          9950.67     9.819523E-9
         9961.634     9.272144E-9
          9972.61     8.740750E-9
          9983.61     8.224672E-9
         9994.616     7.724774E-9
         10005.63     7.393884E-9
         10016.66     7.214383E-9
         10027.71     7.036088E-9
         10038.76     6.859356E-9
         10049.82     6.684001E-9
          10060.9     6.509886E-9
         10071.99     6.337331E-9
          10083.1     6.166017E-9
         10094.21     5.996296E-9
         10105.34     4.709019E-8
         10116.47     2.844750E-8
         10127.62     4.263304E-9
         10138.79    6.552688E-10
         10149.96     1.047628E-8
         10161.16     3.387042E-8
         10172.35     1.622892E-8
         10183.56     4.764920E-9
         10194.79     9.019134E-9
         10206.03     7.975510E-9
         10217.29     4.287146E-9
         10228.54     1.118992E-8
         10239.83    2.085525E-10
         10251.11     1.656771E-8
          10262.4     2.306505E-8
         10273.72     1.016134E-8
         10285.04     3.376375E-9
         10296.39     1.167522E-9
         10307.73     2.385995E-9
          10319.1     1.901548E-8
         10330.47     2.802577E-9
         10341.85     2.663442E-9
         10353.26     2.525886E-9
         10364.67     4.621626E-9
          10376.1     2.639851E-9
         10387.53     1.599699E-9
         10398.99     1.993157E-9
         10410.45     2.197932E-9
         10421.92     9.353491E-9
         10433.41     7.982636E-9
         10444.91     1.488444E-9
         10456.43     1.366578E-9
         10467.95     1.246611E-9
          10479.5     5.414547E-9
         10491.04     1.117548E-9
          10502.6     2.790106E-9
         10514.19     3.487244E-9
         10525.77    3.671161E-10
         10537.38    6.232470E-10
         10548.99    8.205002E-10
         10560.63     4.531520E-9
         10572.26    7.737088E-10
         10583.91    7.507407E-10
         10595.59     1.541510E-9
         10607.26     2.116841E-9
         10618.96     5.112595E-9
         10630.66     2.515011E-9
         10642.38    4.880291E-10
         10654.11    2.545012E-10
         10665.85    5.977280E-10
         10677.62    5.769891E-10
         10689.38     1.600869E-9
         10701.17    5.992547E-10
         10712.96    8.800371E-10
         10724.77    4.969753E-10
          10736.6    1.625703E-10
         10748.43    7.730686E-10
         10760.27    2.371921E-11
         10772.14     1.474057E-9
         10784.01     2.176384E-9
          10795.9    4.551968E-10
         10807.81     1.023762E-9
         10819.72    3.707443E-10
         10831.65     2.285974E-9
         10843.57    3.174166E-10
         10855.53    1.344626E-10
         10867.51    2.140260E-10
         10879.48    2.693701E-10
         10891.48     1.269798E-9
         10903.48    8.616107E-10
          10915.5    3.472685E-10
         10927.52     1.365551E-9
         10939.58    2.534160E-10
         10951.64    4.552282E-10
         10963.71              0.
         10975.79    8.962744E-11
         10987.88    2.537371E-10
           11000.    5.170877E-10
