#  Table wf3f185wsys.tab  Mon 12:22:12 02-Jun-97

#      WAVELENGTH      THROUGHPUT
#       angstroms                

            1640.              0.
         1641.562     5.649139E-6
         1643.125     1.129851E-5
         1644.691     1.695029E-5
         1646.258     2.260133E-5
         1647.825     2.824413E-5
         1649.395     3.391493E-5
         1650.966     3.961532E-5
         1652.538     4.534704E-5
         1654.113     5.110006E-5
         1655.689     5.686861E-5
         1657.265     6.265490E-5
         1658.844     6.845988E-5
         1660.425     7.430455E-5
         1662.006     8.021935E-5
         1663.589     8.616353E-5
         1665.173     9.213674E-5
         1666.759     9.813953E-5
         1668.347     1.041748E-4
         1669.936     1.102361E-4
         1671.527     1.164157E-4
          1673.12     1.226420E-4
         1674.712     1.289005E-4
         1676.308     1.352059E-4
         1677.905     1.415516E-4
         1679.502     1.479305E-4
         1681.103     1.544298E-4
         1682.704     1.610071E-4
         1684.307     1.676345E-4
         1685.911     1.743152E-4
         1687.517     1.810424E-4
         1689.124     1.878205E-4
         1690.733     1.947016E-4
         1692.344     2.017052E-4
         1693.956     2.087648E-4
          1695.57     2.158883E-4
         1697.185     2.230674E-4
           1698.8     2.303034E-4
         1700.419     2.395856E-4
          1702.04     2.546443E-4
         1703.661     2.698384E-4
         1705.283     2.851790E-4
         1706.908     3.006752E-4
         1708.533     3.163012E-4
         1710.161     3.321094E-4
          1711.79     3.481907E-4
          1713.42     3.644380E-4
         1715.053     3.808585E-4
         1716.685     3.974273E-4
         1718.321     4.141828E-4
         1719.958     4.311078E-4
         1721.596     4.483275E-4
         1723.236     4.657513E-4
         1724.877     4.833500E-4
          1726.52     5.011324E-4
         1728.165     5.191120E-4
         1729.811     5.372688E-4
         1731.459     5.573322E-4
         1733.108     5.778376E-4
         1734.759     5.985768E-4
         1736.411     6.195284E-4
         1738.065     6.407078E-4
         1739.721     6.621264E-4
         1741.377     6.838620E-4
         1743.037     7.058847E-4
         1744.698     7.281494E-4
         1746.358     7.506305E-4
         1748.023     7.733832E-4
         1749.687     7.963692E-4
         1751.354     8.187087E-4
         1753.023     8.410491E-4
         1754.691     8.635534E-4
         1756.363     8.862737E-4
         1758.036     9.091746E-4
          1759.71     9.322700E-4
         1761.387     9.527472E-4
         1763.066     9.728031E-4
         1764.744     9.930022E-4
         1766.425      0.00101338
         1768.108      0.00103394
         1769.792     0.001054658
         1771.478     0.001075657
         1773.165     0.001096835
         1774.854     0.001118189
         1776.545     0.001139722
         1778.237     0.001161443
         1779.931     0.001183332
         1781.626     0.001205513
         1783.324     0.001227897
         1785.021      0.00125044
         1786.722     0.001273197
         1788.425     0.001296142
         1790.127     0.001318529
         1791.833      0.00133217
          1793.54     0.001345898
         1795.248     0.001359723
         1796.958     0.001373652
          1798.67     0.001387671
         1800.383     0.001401814
         1802.098      0.00141615
         1803.814     0.001430586
         1805.533     0.001445131
         1807.252     0.001459768
         1808.975     0.001474518
         1810.696     0.001489409
         1812.423     0.001504515
         1814.148       0.0015197
         1815.876     0.001535001
         1817.606     0.001550418
         1819.336     0.001565923
         1821.071     0.001578218
         1822.805      0.00158849
         1824.541     0.001598815
         1826.279     0.001609193
         1828.018     0.001619624
          1829.76     0.001630116
         1831.503     0.001640779
         1833.248     0.001651524
         1834.993     0.001662312
         1836.742     0.001673167
         1838.492      0.00168408
         1840.242     0.001695055
         1841.996     0.001706219
          1843.75     0.001717435
         1845.506     0.001728709
         1847.265     0.001740048
         1849.024     0.001751439
         1850.785     0.001760418
         1852.547     0.001766337
         1854.312     0.001772257
         1856.078     0.001778175
         1857.847     0.001784097
         1859.616     0.001790014
         1861.387     0.001796049
         1863.161     0.001802118
         1864.934      0.00180818
         1866.711     0.001814248
          1868.49     0.001820315
         1870.269     0.001826396
         1872.051     0.001832602
         1873.834     0.001838803
         1875.619     0.001845007
         1877.406     0.001851207
         1879.194     0.001857253
         1880.983     0.001862128
         1882.775     0.001867059
         1884.569      0.00187198
         1886.364     0.001876886
         1888.161     0.001881783
          1889.96     0.001886664
         1891.759     0.001891662
         1893.561     0.001896655
         1895.365     0.001901633
         1897.171     0.001906601
         1898.978     0.001911553
         1900.785     0.001916554
         1902.597     0.001921635
          1904.41     0.001926701
         1906.223     0.001931751
         1908.039     0.001936788
         1909.857     0.001941813
         1911.675     0.001943534
         1913.497     0.001944928
          1915.32     0.001946273
         1917.143     0.001947565
          1918.97      0.00194881
         1920.798     0.001950054
         1922.627     0.001951313
         1924.459     0.001952521
         1926.292     0.001953676
         1928.126      0.00195478
         1929.963     0.001955832
         1931.802     0.001956955
         1933.642     0.001958027
         1935.483     0.001959046
         1937.328     0.001960011
         1939.172     0.001960921
         1941.021     0.001961218
         1942.869     0.001960996
         1944.719     0.001960708
         1946.572     0.001960354
         1948.426     0.001959933
         1950.282     0.001959463
          1952.14     0.001959024
         1953.998     0.001958518
          1955.86     0.001957942
         1957.723     0.001957297
         1959.588     0.001956583
         1961.454     0.001955851
         1963.324     0.001955064
         1965.192     0.001954207
         1967.064     0.001953278
         1968.939     0.001952276
         1970.814     0.001950703
         1972.692     0.001948393
          1974.57     0.001945999
         1976.451     0.001943518
         1978.334     0.001940952
         1980.219     0.001938306
         1982.104     0.001935625
         1983.992     0.001932856
         1985.883     0.001929998
         1987.774     0.001927052
         1989.667     0.001924018
         1991.563     0.001920936
         1993.459     0.001917776
         1995.359     0.001914522
          1997.26     0.001911176
         1999.161     0.001907744
         2001.066     0.001902765
         2002.972     0.001896519
         2004.879     0.001890135
          2006.79     0.001883607
           2008.7     0.001876946
         2010.614     0.001870147
         2012.529     0.001863234
         2014.447     0.001856172
         2016.365      0.00184897
         2018.287     0.001841618
         2020.208     0.001834126
         2022.132     0.001826465
         2024.059     0.001818651
         2025.985     0.001810697
         2027.917      0.00180258
         2029.849     0.001794321
         2031.782     0.001782426
         2033.717     0.001770043
         2035.654     0.001757468
         2037.594     0.001744691
         2039.534     0.001731726
         2041.478     0.001718525
         2043.421     0.001705133
         2045.368     0.001691527
         2047.316     0.001677729
         2049.266     0.001663732
         2051.219     0.001649485
         2053.172     0.001635024
         2055.128     0.001620358
         2057.085     0.001605488
         2059.045     0.001590406
         2061.006     0.001573882
         2062.969     0.001555952
         2064.934     0.001537792
           2066.9     0.001519402
          2068.87     0.001500769
         2070.842     0.001481863
         2072.813     0.001462698
         2074.788     0.001443275
         2076.764     0.001423629
         2078.742     0.001403747
         2080.721     0.001383587
         2082.703     0.001363121
         2084.688     0.001342406
         2086.673     0.001321466
         2088.662     0.001300273
         2090.651     0.001279391
         2092.642     0.001259396
         2094.635     0.001239175
          2096.63     0.001218733
         2098.629     0.001198043
         2100.626     0.001177124
         2102.628     0.001155878
         2104.631      0.00113442
         2106.634     0.001112748
         2108.643     0.001090815
          2110.65     0.001068651
         2112.661     0.001046152
         2114.673      0.00102344
         2116.686     0.001000521
         2118.704     9.773324E-4
         2120.722     9.558520E-4
         2122.742     9.376048E-4
         2124.763     9.191819E-4
         2126.788     9.005734E-4
         2128.815     8.817878E-4
         2130.841     8.627903E-4
         2132.872     8.435217E-4
         2134.902     8.241027E-4
         2136.936     8.044857E-4
         2138.972     7.848071E-4
         2141.009     7.650203E-4
         2143.049     7.449602E-4
         2145.089     7.247370E-4
         2147.134     7.042985E-4
         2149.179     6.836978E-4
         2151.226     6.685744E-4
         2153.274     6.571291E-4
         2155.325     6.455813E-4
         2157.379     6.339251E-4
         2159.434     6.221709E-4
         2161.491     6.102141E-4
          2163.55     5.981294E-4
         2165.609     5.859524E-4
         2167.673     5.736605E-4
         2169.738     5.612752E-4
         2171.805     5.486660E-4
         2173.874     5.359515E-4
         2175.943     5.231489E-4
         2178.016     5.102347E-4
         2180.092     4.972184E-4
         2182.168     4.839975E-4
         2184.246     4.706873E-4
         2186.328     4.572763E-4
         2188.409     4.437893E-4
         2190.494     4.312402E-4
         2192.582     4.219903E-4
          2194.67     4.126872E-4
          2196.76     4.033254E-4
         2198.852     3.939036E-4
         2200.946     3.854104E-4
         2203.043     3.779646E-4
         2205.142     3.703443E-4
         2207.242     3.625440E-4
         2209.344     3.545626E-4
         2211.449     3.482801E-4
         2213.555     3.427147E-4
         2215.664     3.370158E-4
         2217.774     3.311824E-4
         2219.886     3.252138E-4
         2222.001     3.190595E-4
         2224.117     3.127715E-4
         2226.236     3.063482E-4
         2228.357     2.997842E-4
         2230.479     2.935802E-4
         2232.604     2.889500E-4
          2234.73     2.842185E-4
         2236.858     2.793863E-4
          2238.99     2.744488E-4
         2241.122     2.693906E-4
         2243.258     2.642082E-4
         2245.393     2.589300E-4
         2247.534     2.535403E-4
         2249.673     2.480565E-4
         2251.816     2.439249E-4
         2253.962     2.399752E-4
         2256.107     2.359532E-4
         2258.258     2.318462E-4
         2260.409     2.276768E-4
         2262.562     2.234737E-4
         2264.717     2.191946E-4
         2266.873     2.148394E-4
         2269.034     2.104040E-4
         2271.195     2.066055E-4
         2273.359     2.033175E-4
         2275.523     1.999747E-4
         2277.691     1.965689E-4
          2279.86     1.931058E-4
         2282.032     1.895658E-4
         2284.206     1.859635E-4
          2286.38     1.823061E-4
         2288.559     1.785842E-4
          2290.74     1.751777E-4
         2292.922     1.724524E-4
         2295.105     1.696814E-4
         2297.291     1.668995E-4
         2299.479     1.640940E-4
          2301.67     1.611943E-4
         2303.863     1.582335E-4
         2306.058     1.552224E-4
         2308.253     1.521653E-4
         2310.453     1.492472E-4
         2312.653     1.470299E-4
         2314.855     1.447755E-4
         2317.062     1.424820E-4
         2319.267     1.401538E-4
         2321.477     1.377780E-4
         2323.689     1.353611E-4
         2325.902     1.329076E-4
         2328.117     1.304162E-4
         2330.335     1.279886E-4
         2332.554     1.261024E-4
         2334.777     1.241852E-4
         2337.002     1.222380E-4
         2339.226     1.202631E-4
         2341.455     1.182496E-4
         2343.685     1.162045E-4
         2345.917     1.141288E-4
         2348.153     1.120214E-4
         2350.388     1.099817E-4
         2352.628     1.083679E-4
         2354.868     1.067314E-4
         2357.112     1.050696E-4
         2359.357     1.033848E-4
         2361.604     1.016693E-4
         2363.853     9.992695E-5
         2366.104     9.816056E-5
         2368.359     9.636870E-5
         2370.615     9.468033E-5
         2372.873     9.330873E-5
         2375.134     9.191731E-5
         2377.396     9.050762E-5
          2379.66     8.907868E-5
         2381.926     8.762379E-5
         2384.195     8.614855E-5
         2386.467     8.465331E-5
          2388.74     8.313956E-5
         2391.016     8.179692E-5
         2393.293     8.067604E-5
         2395.573     7.954062E-5
         2397.854     7.839045E-5
         2400.138     7.721732E-5
         2402.426     7.590011E-5
         2404.713     7.456907E-5
         2407.003     7.322143E-5
         2409.297     7.185672E-5
          2411.59     7.074571E-5
         2413.889     6.973884E-5
         2416.187     6.872152E-5
          2418.49     6.769079E-5
         2420.793     6.664651E-5
         2423.097     6.558688E-5
         2425.407     6.451315E-5
         2427.716     6.342914E-5
          2430.03     6.233504E-5
         2432.344     6.149596E-5
         2434.662     6.064671E-5
         2436.979     5.978876E-5
           2439.3     5.892054E-5
         2441.626     5.799028E-5
          2443.95     5.702927E-5
         2446.279     5.605667E-5
         2448.608     5.507437E-5
          2450.94     5.419568E-5
         2453.276     5.347691E-5
         2455.611     5.275111E-5
         2457.951     5.201665E-5
         2460.292     5.127428E-5
         2462.637     5.052172E-5
         2464.982     4.976171E-5
          2467.33     4.899365E-5
         2469.681     4.821713E-5
         2472.031     4.756134E-5
         2474.387     4.691804E-5
         2476.745     4.626800E-5
         2479.103     4.561193E-5
         2481.465     4.499498E-5
         2483.828     4.440076E-5
         2486.194     4.380035E-5
         2488.563     4.319338E-5
         2490.932     4.261142E-5
         2493.305     4.207009E-5
          2495.68     4.152349E-5
         2498.058     4.097085E-5
         2500.437     4.041294E-5
          2502.82     3.984894E-5
         2505.202     3.927988E-5
         2507.588     3.870473E-5
         2509.978     3.812353E-5
         2512.368     3.761772E-5
         2514.762     3.710724E-5
         2517.157     3.659187E-5
         2519.555     3.607132E-5
         2521.954     3.561293E-5
         2524.358     3.516504E-5
         2526.762     3.471285E-5
         2529.168     3.425603E-5
         2531.578     3.385004E-5
         2533.988     3.346981E-5
         2536.403     3.308517E-5
         2538.818     3.264819E-5
         2541.236     3.214941E-5
         2543.658     3.160613E-5
          2546.08     3.106031E-5
         2548.505     3.051168E-5
         2550.934     3.005979E-5
         2553.363     2.976602E-5
         2555.795     2.947056E-5
         2558.229     2.917337E-5
         2560.666     2.882711E-5
         2563.106     2.835233E-5
         2565.547     2.787537E-5
          2567.99     2.739590E-5
         2570.436     2.694554E-5
         2572.887     2.663866E-5
         2575.336     2.633059E-5
         2577.788     2.602062E-5
         2580.245     2.570886E-5
         2582.701     2.539698E-5
         2585.163     2.508277E-5
         2587.625     2.476718E-5
          2590.09     2.444990E-5
         2592.557     2.413207E-5
         2595.026     2.381248E-5
         2597.499     2.349091E-5
         2599.972     2.316777E-5
          2602.45     2.284397E-5
         2604.927     2.251876E-5
         2607.409     2.219136E-5
         2609.893     2.186238E-5
         2612.378     2.170935E-5
         2614.868     2.156325E-5
         2617.357     2.141632E-5
         2619.851     2.126825E-5
         2622.347     2.094489E-5
         2624.843     2.060897E-5
         2627.345     2.027079E-5
         2629.847     1.993099E-5
         2632.352     1.976740E-5
          2634.86     1.961429E-5
         2637.369     1.946024E-5
         2639.881     1.930519E-5
         2642.395     1.905908E-5
         2644.913     1.880689E-5
         2647.432     1.855340E-5
         2649.954     1.829847E-5
         2652.478     1.813760E-5
         2655.004     1.797749E-5
         2657.534     1.781627E-5
         2660.066     1.765404E-5
         2662.599     1.749163E-5
         2665.135     1.732816E-5
         2667.674     1.716365E-5
         2670.214     1.699818E-5
         2672.759     1.683204E-5
         2675.303     1.666507E-5
         2677.854     1.649678E-5
         2680.402     1.632786E-5
         2682.957     1.615830E-5
         2685.512     1.598780E-5
          2688.07     1.581626E-5
          2690.63     1.564379E-5
         2693.194     1.547046E-5
         2695.759     1.529620E-5
         2698.327     1.512080E-5
         2700.896     1.498857E-5
         2703.469     1.493767E-5
         2706.044     1.488607E-5
         2708.622     1.483373E-5
         2711.201     1.473264E-5
         2713.783     1.457510E-5
         2716.369     1.441590E-5
         2718.958     1.425517E-5
         2721.547     1.415601E-5
         2724.139     1.409843E-5
         2726.734     1.404010E-5
         2729.331     1.398100E-5
         2731.931     1.392120E-5
         2734.532     1.386074E-5
         2737.139     1.379941E-5
         2739.744     1.373742E-5
         2742.355     1.357646E-5
         2744.967     1.340338E-5
         2747.581     1.322868E-5
         2750.199     1.305820E-5
         2752.817     1.295901E-5
          2755.44     1.285942E-5
         2758.066     1.275955E-5
         2760.691     1.265948E-5
         2763.322     1.255887E-5
         2765.954     1.245806E-5
          2768.59     1.235689E-5
         2771.225     1.225552E-5
         2773.864     1.215376E-5
         2776.509     1.205161E-5
          2779.15     1.194941E-5
           2781.8     1.184652E-5
         2784.449     1.174339E-5
         2787.101     1.163998E-5
         2789.756     1.153629E-5
         2792.413     1.143206E-5
         2795.075     1.132741E-5
         2797.734     1.122273E-5
         2800.402     1.111749E-5
         2803.069     1.101193E-5
         2805.738     1.090607E-5
         2808.412     1.079989E-5
         2811.085     1.074005E-5
         2813.764     1.074824E-5
         2816.444     1.075643E-5
         2819.127     1.076464E-5
         2821.813     1.069457E-5
           2824.5     1.058657E-5
          2827.19     1.047831E-5
         2829.883     1.036977E-5
         2832.578     1.026082E-5
         2835.278     1.015147E-5
         2837.979     1.004196E-5
         2840.682     9.932104E-6
         2843.387     9.821763E-6
         2846.095     9.711152E-6
         2848.805     9.600278E-6
         2851.519     9.555023E-6
         2854.236     9.561575E-6
         2856.954     9.568133E-6
         2859.677     9.574701E-6
           2862.4     9.476577E-6
         2865.126     9.364107E-6
         2867.855     9.251378E-6
         2870.586     9.138321E-6
         2873.322     9.024759E-6
         2876.058     8.911000E-6
         2878.797     8.796981E-6
         2881.541     8.749999E-6
         2884.285     8.755573E-6
         2887.032     8.761154E-6
         2889.781     8.766742E-6
         2892.534     8.661018E-6
         2895.289     8.545439E-6
         2898.049     8.429478E-6
         2900.809     8.344163E-6
         2903.572     8.332983E-6
         2906.337     8.321776E-6
         2909.105     8.310541E-6
         2911.877     8.217146E-6
         2914.649     8.084918E-6
         2917.427     7.952714E-6
         2920.205     7.829703E-6
         2922.988     7.818673E-6
         2925.771     7.807629E-6
         2928.558     7.796557E-6
         2931.347     7.727121E-6
         2934.139     7.595362E-6
         2936.935     7.463746E-6
         2939.734     7.332327E-6
         2942.532     7.310157E-6
         2945.336     7.299425E-6
         2948.141     7.288672E-6
         2950.948     7.237230E-6
         2953.759     7.106169E-6
         2956.572     6.975343E-6
         2959.391     6.844589E-6
         2962.206     6.808267E-6
         2965.031     6.797850E-6
         2967.855     6.787423E-6
         2970.681     6.748100E-6
          2973.51     6.617935E-6
         2976.342     6.488020E-6
          2979.18     6.358188E-6
         2982.016     6.313619E-6
         2984.856     6.303562E-6
           2987.7     6.293478E-6
         2990.544     6.283384E-6
         2993.396     6.273245E-6
         2996.245     6.263103E-6
           2999.1     6.252927E-6
         3001.956     6.161278E-6
         3004.813     6.032432E-6
         3007.679     5.903604E-6
         3010.543     5.797689E-6
          3013.41     5.788046E-6
          3016.28     5.778382E-6
         3019.153     5.768699E-6
         3022.031     5.758948E-6
         3024.908     5.749178E-6
         3027.791     5.739376E-6
         3030.674     5.701964E-6
         3033.561     5.574200E-6
          3036.45     5.446714E-6
         3039.342     5.319509E-6
         3042.238     5.283460E-6
         3045.135     5.274205E-6
         3048.035     5.264931E-6
          3050.94     5.255618E-6
         3053.845     5.246266E-6
         3056.754     5.236892E-6
         3059.665     5.227500E-6
         3062.579     5.114567E-6
         3065.498     4.988387E-6
         3068.417     4.862578E-6
         3071.341     4.790526E-6
         3074.266     4.781774E-6
         3077.194     4.773005E-6
         3080.125     4.764216E-6
         3083.058     4.755368E-6
         3085.994     4.746502E-6
         3088.934     4.737618E-6
         3091.877     4.728714E-6
         3094.823     4.719793E-6
         3097.771     4.710859E-6
         3100.721     4.677669E-6
         3103.676     4.569172E-6
          3106.63     4.460315E-6
         3109.591     4.350862E-6
         3112.552     4.341730E-6
         3115.516     4.348745E-6
         3118.485     4.355775E-6
         3121.455     4.362815E-6
         3124.428     4.369867E-6
         3127.404     4.376932E-6
         3130.382     4.368774E-6
         3133.367     4.256658E-6
         3136.349     4.144254E-6
         3139.338     4.031232E-6
         3142.328     4.011201E-6
         3145.321     4.017696E-6
         3148.316     4.024203E-6
         3151.315     4.030703E-6
         3154.316     4.037196E-6
          3157.32     4.043698E-6
         3160.329     4.050215E-6
          3163.34     4.056750E-6
         3166.353     4.063290E-6
          3169.37     4.069847E-6
         3172.387     3.979075E-6
         3175.408     3.862093E-6
         3178.434     3.744547E-6
         3181.461     3.686442E-6
         3184.493     3.692399E-6
         3187.524     3.698359E-6
         3190.563     3.704335E-6
           3193.6     3.710286E-6
         3196.642     3.716250E-6
          3199.69     3.722230E-6
         3202.734     3.728209E-6
         3205.787     3.734212E-6
         3208.841     3.740219E-6
         3211.896     3.667319E-6
         3214.956     3.545721E-6
         3218.017     3.423606E-6
         3221.086     3.346219E-6
         3224.152     3.351610E-6
         3227.224     3.357016E-6
         3230.298     3.362427E-6
         3233.372     3.367852E-6
         3236.453     3.373290E-6
         3239.536     3.378735E-6
         3242.623     3.384225E-6
         3245.711     3.389729E-6
         3248.802     3.395241E-6
         3251.898     3.400748E-6
         3254.995     3.406249E-6
         3258.095     3.411759E-6
         3261.198     3.417283E-6
         3264.304     3.422818E-6
         3267.415     3.428368E-6
         3270.525     3.411405E-6
         3273.643     3.282908E-6
         3276.761     3.153997E-6
         3279.882     3.024540E-6
         3283.005     3.024340E-6
         3286.132     3.029255E-6
         3289.262     3.034178E-6
         3292.394     3.039136E-6
         3295.532     3.044114E-6
         3298.672     3.049101E-6
         3301.812     3.054093E-6
         3304.958     3.059103E-6
         3308.106     3.064119E-6
         3311.257     3.069147E-6
         3314.412     3.074190E-6
         3317.569     3.079241E-6
         3320.728     3.052223E-6
         3323.891     2.917667E-6
         3327.058     2.782446E-6
         3330.227     2.656761E-6
         3333.398     2.661167E-6
         3336.573     2.665580E-6
         3339.754     2.670005E-6
         3342.932     2.674436E-6
         3346.119     2.678884E-6
         3349.306     2.683335E-6
         3352.496     2.687800E-6
         3355.688     2.692273E-6
         3358.884     2.696755E-6
         3362.083     2.701249E-6
         3365.285     2.705755E-6
         3368.492     2.710270E-6
         3371.702     2.714812E-6
         3374.911     2.719373E-6
         3378.127     2.723948E-6
         3381.345     2.667379E-6
         3384.565     2.525176E-6
          3387.79     2.382277E-6
         3391.017     2.285305E-6
         3394.248     2.289189E-6
         3397.479     2.293075E-6
         3400.717     2.296975E-6
         3403.955     2.300886E-6
         3407.197     2.304804E-6
         3410.444     2.308732E-6
          3413.69     2.312670E-6
         3416.943     2.316620E-6
         3420.199     2.320579E-6
         3423.457     2.324574E-6
         3426.717     2.328575E-6
         3429.981     2.332585E-6
         3433.247     2.336633E-6
         3436.519     2.340691E-6
         3439.792     2.344754E-6
          3443.07     2.348838E-6
         3446.349     2.352926E-6
         3449.631     2.357023E-6
         3452.917     2.361157E-6
         3456.205     2.365303E-6
         3459.499     2.369458E-6
         3462.791     2.241116E-6
         3466.093     2.088046E-6
         3469.394     1.934461E-6
         3472.698     1.908972E-6
         3476.006     1.912362E-6
         3479.316     1.915759E-6
         3482.632     1.919188E-6
         3485.947     1.922624E-6
         3489.269     1.926071E-6
         3492.594     1.929533E-6
         3495.918     1.932999E-6
         3499.249     1.936475E-6
         3502.582     1.939980E-6
         3505.918     1.943498E-6
         3509.259     1.947025E-6
         3512.599     1.950578E-6
         3515.948     1.954151E-6
         3519.297     1.957726E-6
         3522.648     1.961315E-6
         3526.003     1.964913E-6
         3529.361     1.968518E-6
         3532.725     1.972174E-6
         3536.089     1.975844E-6
         3539.457     1.979522E-6
          3542.83     1.983198E-6
         3546.204     1.986877E-6
         3549.581     1.990564E-6
         3552.962     1.994284E-6
         3556.345     1.998015E-6
         3559.732     2.001752E-6
         3563.123     2.005525E-6
          3566.52     2.009312E-6
         3569.917     2.013102E-6
         3573.317     1.849672E-6
          3576.72     1.681251E-6
         3580.126     1.518404E-6
         3583.536     1.521297E-6
         3586.949     1.524196E-6
         3590.367     1.527103E-6
         3593.788     1.530021E-6
         3597.209     1.532941E-6
         3600.637     1.535874E-6
         3604.066     1.538828E-6
         3607.499     1.541788E-6
         3610.934     1.544751E-6
         3614.373     1.547712E-6
         3617.819     1.550683E-6
         3621.263     1.553668E-6
         3624.714     1.556687E-6
         3628.166     1.559711E-6
         3631.621     1.562734E-6
         3635.082     1.565759E-6
         3638.542     1.568787E-6
         3642.009     1.571826E-6
          3645.48     1.574874E-6
         3648.952     1.577925E-6
         3652.427     1.580998E-6
         3655.906     1.584083E-6
         3659.387     1.587175E-6
         3662.875     1.590278E-6
         3666.361     1.593384E-6
         3669.857     1.596501E-6
          3673.35     1.599624E-6
          3676.85     1.602757E-6
         3680.352     1.605895E-6
         3683.857     1.609041E-6
         3687.365     1.612194E-6
         3690.877     1.615354E-6
         3694.395     1.618525E-6
         3697.915     1.621703E-6
         3701.437     1.624886E-6
         3704.962     1.628077E-6
          3708.49     1.631275E-6
         3712.022     1.524292E-6
         3715.558     1.334305E-6
         3719.098     1.143260E-6
         3722.642     1.096098E-6
         3726.186     1.098254E-6
         3729.737     1.100417E-6
         3733.289     1.102584E-6
         3736.844     1.104756E-6
         3740.405     1.106933E-6
         3743.966     1.109113E-6
         3747.533     1.111301E-6
         3751.102     1.113492E-6
         3754.677     1.115689E-6
         3758.253     1.117890E-6
         3761.832     1.120089E-6
         3765.415     1.122287E-6
         3769.003     1.124491E-6
         3772.593     1.126708E-6
         3776.188     1.128933E-6
         3779.782     1.131161E-6
         3783.384     1.133384E-6
         3786.987     1.135610E-6
         3790.594     1.137838E-6
         3794.204     1.140061E-6
         3797.817     1.142288E-6
         3801.438     1.144527E-6
         3805.059     1.146776E-6
         3808.683     1.149030E-6
          3812.31     1.151280E-6
         3815.941     1.153529E-6
         3819.575     1.155783E-6
         3823.213     1.158029E-6
         3826.856     1.160280E-6
         3830.503     1.162535E-6
         3834.149     1.164792E-6
         3837.802     1.167057E-6
         3841.458     1.169324E-6
         3845.116     1.171594E-6
          3848.78     1.173870E-6
         3852.443     1.176139E-6
         3856.115     1.178410E-6
         3859.787     1.180685E-6
         3863.465     1.182951E-6
         3867.145     1.185220E-6
         3870.828     1.187493E-6
         3874.516     1.189770E-6
         3878.206     1.192051E-6
         3881.898     1.194327E-6
         3885.597     1.196603E-6
         3889.298     1.198883E-6
         3893.004     1.201165E-6
         3896.711     1.203451E-6
         3900.423     1.205739E-6
         3904.137     1.208017E-6
         3907.855     1.210301E-6
         3911.582     1.212583E-6
         3915.307     1.214859E-6
         3919.036     1.217138E-6
         3922.768     1.219409E-6
         3926.504     1.221681E-6
         3930.244     1.223956E-6
         3933.987     1.226233E-6
         3937.736     1.228515E-6
         3941.486     1.230788E-6
          3945.24     1.233046E-6
         3948.999     1.235310E-6
          3952.76     1.237573E-6
         3956.525     1.239839E-6
         3960.293     1.242108E-6
         3964.064     1.244350E-6
         3967.842     1.246597E-6
         3971.621     1.248846E-6
         3975.406     1.251098E-6
         3979.192     1.253352E-6
         3982.981     1.068420E-6
         3986.777     8.316288E-7
         3990.572     6.300393E-7
         3994.372     6.311477E-7
         3998.179     6.322590E-7
         4001.986     6.327331E-7
           4005.8     6.326214E-7
         4009.615     6.325095E-7
         4013.434     6.323878E-7
         4017.256     6.322646E-7
         4021.082     6.321377E-7
         4024.916     6.320025E-7
         4028.747     6.318670E-7
         4032.586     6.317239E-7
         4036.427     6.315772E-7
         4040.271     6.314294E-7
         4044.119     6.312713E-7
          4047.97     6.311126E-7
         4051.828     6.309487E-7
         4055.689     6.307785E-7
         4059.552     6.306079E-7
         4063.418     6.304283E-7
         4067.288     6.302469E-7
         4071.161     6.300618E-7
         4075.039     6.298688E-7
         4078.922     6.296752E-7
         4082.807     6.294742E-7
         4086.695     6.292700E-7
         4090.589     6.290647E-7
         4094.485     6.288573E-7
         4098.385     6.286491E-7
         4102.288     6.284302E-7
         4106.195     6.282033E-7
         4110.105     6.279760E-7
         4114.022     6.277460E-7
         4117.942     6.275154E-7
         4121.864     6.272764E-7
          4125.79     6.270278E-7
         4129.719     6.267784E-7
         4133.652     6.265266E-7
         4137.589     6.262738E-7
         4141.534     6.260195E-7
         4145.477     6.257639E-7
         4149.427     6.255074E-7
         4153.379     6.252358E-7
         4157.334     6.249609E-7
         4161.293     6.246854E-7
         4165.257     6.244080E-7
         4169.229     6.241297E-7
         4173.199     6.238433E-7
         4177.171     6.235543E-7
         4181.152     6.232643E-7
         4185.134     6.229728E-7
          4189.12     6.226806E-7
         4193.109     6.223808E-7
         4197.105     6.220784E-7
         4201.102     6.220196E-7
         4205.101     6.226031E-7
          4209.11     6.231884E-7
         4213.119     6.237728E-7
         4217.132     6.243575E-7
         4221.148     6.249405E-7
         4225.168     6.255174E-7
         4229.197     6.260959E-7
         4233.222     6.266730E-7
         4237.256     6.272514E-7
         4241.292     6.278275E-7
         4245.331     6.283979E-7
         4249.375     6.289693E-7
         4253.421     6.295403E-7
         4257.472     6.301121E-7
         4261.529     6.306811E-7
          4265.59     6.312449E-7
         4269.653     6.318094E-7
         4273.719     6.323738E-7
         4277.789     6.329386E-7
         4281.863     6.335002E-7
         4285.941     6.340575E-7
         4290.025     6.346156E-7
         4294.111     6.351726E-7
         4298.203     6.357306E-7
         4302.294     6.362839E-7
         4306.394     6.368346E-7
         4310.496     6.373858E-7
         4314.601     6.379366E-7
         4318.712     6.384884E-7
         4322.825     6.390397E-7
         4326.945     6.395919E-7
         4331.063     6.401438E-7
          4335.19     6.406958E-7
         4339.319     6.412485E-7
         4343.452     6.417942E-7
         4347.588     6.423390E-7
         4351.731     6.428812E-7
         4355.878     6.434190E-7
         4360.024     6.439565E-7
         4364.179     6.445024E-7
         4368.336     6.450487E-7
         4372.496     6.455903E-7
          4376.66     6.461290E-7
         4380.831     6.466686E-7
         4385.001     6.472074E-7
          4389.18     6.477478E-7
         4393.362     6.482809E-7
         4397.546     6.488128E-7
         4401.734     6.493484E-7
         4405.926     6.498889E-7
         4410.125     6.504304E-7
         4414.323     6.509627E-7
         4418.527     6.514962E-7
         4422.737     6.520302E-7
         4426.952     6.525649E-7
         4431.168     6.530971E-7
         4435.388     6.536231E-7
         4439.615     6.541501E-7
         4443.841     6.546840E-7
         4448.073     6.552196E-7
         4452.312     6.557508E-7
         4456.554     6.562788E-7
         4460.799     6.568070E-7
         4465.047     6.573351E-7
           4469.3     6.578642E-7
         4473.556     6.583931E-7
         4477.816     6.589227E-7
         4482.083     6.594527E-7
         4486.355     6.599834E-7
         4490.627     6.605143E-7
         4494.904     6.610450E-7
         4499.185     6.615762E-7
          4503.47     6.639306E-7
         4507.759     6.667163E-7
         4512.055     6.695028E-7
         4516.354     6.722885E-7
         4520.656     6.750768E-7
         4524.961     6.778748E-7
         4529.271     6.806766E-7
         4533.584     6.834744E-7
         4537.902     6.862745E-7
         4542.226     6.890785E-7
         4546.555     6.918862E-7
         4550.885     6.946971E-7
         4555.219     6.975181E-7
         4559.557     7.003426E-7
           4563.9     7.031624E-7
         4568.246     7.059845E-7
         4572.597     7.088094E-7
         4576.955     7.116395E-7
         4581.316     7.144723E-7
         4585.677     7.173055E-7
         4590.046     7.201450E-7
         4594.418     7.229863E-7
         4598.793     7.258307E-7
         4603.173     7.286783E-7
          4607.56     7.315311E-7
         4611.951     7.343868E-7
          4616.34     7.372428E-7
         4620.739     7.401035E-7
          4625.14     7.429576E-7
         4629.545     7.458150E-7
         4633.954     7.486844E-7
          4638.37     7.515599E-7
          4642.79     7.544387E-7
         4647.209     7.573170E-7
         4651.635     7.602009E-7
         4656.068     7.630888E-7
         4660.502     7.659775E-7
         4664.941     7.688607E-7
         4669.386     7.717487E-7
         4673.831     7.746455E-7
         4678.285     7.775506E-7
          4682.74     7.804568E-7
         4687.202     7.833683E-7
         4691.667     7.862778E-7
         4696.135     7.891834E-7
          4700.61     7.920956E-7
         4705.084     7.950165E-7
         4709.565     7.979430E-7
         4714.053     4.762954E-7
         4718.545     1.169575E-7
         4723.039              0.
         4727.537              0.
          4732.04              0.
         4736.546              0.
         4741.057              0.
         4745.575              0.
         4750.097              0.
         4754.621              0.
         4759.149              0.
         4763.682              0.
         4768.219              0.
          4772.76              0.
         4777.308              0.
         4781.858              0.
         4786.415              0.
         4790.973              0.
         4795.536              0.
         4800.103              0.
         4804.675              0.
         4809.253              0.
         4813.833              0.
         4818.421              0.
          4823.01              0.
         4827.603              0.
         4832.201              0.
         4836.803              0.
         4841.409              0.
         4846.023              0.
         4850.641              0.
         4855.258              0.
         4859.885              0.
         4864.513              0.
         4869.146              0.
         4873.783              0.
         4878.428              0.
         4883.077              0.
         4887.724              0.
         4892.379              0.
         4897.042              0.
         4901.705              0.
         4906.374              0.
         4911.049              0.
         4915.726              0.
         4920.405              0.
         4925.094              0.
         4929.787              0.
         4934.482              0.
         4939.182              0.
         4943.886              0.
         4948.594              0.
         4953.307              0.
         4958.027              0.
         4962.752              0.
         4967.479              0.
         4972.209              0.
         4976.945              0.
         4981.685              0.
         4986.429              0.
         4991.181              0.
         4995.938              0.
         5000.695              0.
         5005.458              0.
         5010.225              0.
         5014.997              0.
         5019.773              0.
         5024.557              0.
         5029.344              0.
         5034.134              0.
         5038.929              0.
         5043.728              0.
         5048.531              0.
         5053.339              0.
         5058.155              0.
         5062.972              0.
         5067.797              0.
         5072.624              0.
         5077.455              0.
          5082.29              0.
          5087.13              0.
         5091.975              0.
         5096.828              0.
         5101.685              0.
         5106.543              0.
         5111.407              0.
         5116.275              0.
         5121.147              0.
         5126.025              0.
          5130.91              0.
         5135.799              0.
          5140.69              0.
         5145.583              0.
         5150.486              0.
         5155.392              0.
         5160.302              0.
         5165.219              0.
         5170.141              0.
         5175.063              0.
         5179.991              0.
         5184.927              0.
         5189.865              0.
         5194.808              0.
         5199.758              0.
         5204.713              0.
         5209.667              0.
         5214.629              0.
         5219.598              0.
         5224.569              0.
         5229.545              0.
         5234.528              0.
         5239.514              0.
         5244.501              0.
         5249.499              0.
         5254.501              0.
         5259.505              0.
         5264.514              0.
         5269.528              0.
         5274.546              0.
          5279.57              0.
         5284.601              0.
         5289.634              0.
         5294.675              0.
         5299.717              0.
         5304.765              0.
         5309.817              0.
         5314.874              0.
         5319.938              0.
         5325.005              0.
          5330.08              0.
         5335.156              0.
         5340.237              0.
         5345.323              0.
         5350.414              0.
         5355.512              0.
         5360.613              0.
         5365.721              0.
         5370.831              0.
         5375.946              0.
         5381.066              0.
         5386.191              0.
         5391.321              0.
         5396.458              0.
         5401.601              0.
         5406.745              0.
         5411.895              0.
         5417.049              0.
         5422.208              0.
         5427.372              0.
         5432.544              0.
         5437.721              0.
         5442.899              0.
          5448.08              0.
         5453.272              0.
         5458.465              0.
         5463.664              0.
         5468.871              0.
         5474.079              0.
         5479.289              0.
         5484.511              0.
         5489.737              0.
         5494.965              0.
         5500.199              0.
         5505.437              0.
         5510.683              0.
         5515.929              0.
         5521.185              0.
         5526.446              0.
         5531.709              0.
         5536.978              0.
         5542.251              0.
         5547.533              0.
         5552.813              0.
         5558.104              0.
         5563.401              0.
         5568.699              0.
         5574.003              0.
         5579.312              0.
         5584.625              0.
         5589.944              0.
         5595.271              0.
         5600.603              0.
         5605.937              0.
         5611.275              0.
          5616.62              0.
         5621.969              0.
         5627.323              0.
         5632.686              0.
          5638.05              0.
         5643.422              0.
         5648.797              0.
         5654.177              0.
         5659.562              0.
         5664.952              0.
         5670.347              0.
          5675.75              0.
         5681.159              0.
          5686.57              0.
         5691.986              0.
         5697.407              0.
         5702.833              0.
         5708.264              0.
         5713.704              0.
         5719.148              0.
         5724.595              0.
         5730.044              0.
         5735.504              0.
         5740.967              0.
         5746.435              0.
         5751.911              0.
         5757.392              0.
         5762.875              0.
          5768.36              0.
         5773.857              0.
         5779.356              0.
          5784.86              0.
         5790.373              0.
         5795.891              0.
         5801.411              0.
         5806.933              0.
         5812.466              0.
         5818.002              0.
         5823.542              0.
         5829.089              0.
         5834.644              0.
         5840.197              0.
         5845.763              0.
         5851.333              0.
         5856.906              0.
         5862.484              0.
         5868.067              0.
         5873.659              0.
          5879.25              0.
         5884.853              0.
         5890.457              0.
          5896.07              0.
         5901.686              0.
         5907.306              0.
         5912.936              0.
         5918.563              0.
         5924.204              0.
         5929.846              0.
         5935.497              0.
         5941.149              0.
         5946.808              0.
         5952.471              0.
          5958.14              0.
         5963.814              0.
         5969.498              0.
         5975.187              0.
         5980.877              0.
         5986.573              0.
         5992.274              0.
         5997.981              0.
         6003.694              0.
         6009.415              0.
         6015.142              0.
          6020.87              0.
         6026.604              0.
         6032.344              0.
         6038.089              0.
          6043.84              0.
         6049.599              0.
         6055.364              0.
         6061.131              0.
           6066.9              0.
         6072.682              0.
         6078.465              0.
         6084.254              0.
         6090.052              0.
         6095.852              0.
         6101.661              0.
         6107.469              0.
         6113.289              0.
         6119.111              0.
         6124.938              0.
         6130.775              0.
         6136.614              0.
         6142.462              0.
         6148.309              0.
         6154.164              0.
         6160.029              0.
         6165.896              0.
         6171.771              0.
         6177.649              0.
         6183.529              0.
         6189.421              0.
         6195.316              0.
          6201.22              0.
         6207.126              0.
         6213.038              0.
         6218.958              0.
         6224.877              0.
         6230.809              0.
         6236.743              0.
         6242.687              0.
         6248.632              0.
         6254.583              0.
         6260.543              0.
         6266.502              0.
         6272.474              0.
         6278.448              0.
         6284.431              0.
         6290.416              0.
         6296.407              0.
         6302.403              0.
         6308.406              0.
         6314.417              0.
         6320.431              0.
         6326.454              0.
         6332.479              0.
          6338.51              0.
         6344.546              0.
         6350.589              0.
         6356.637              0.
         6362.695              0.
         6368.754              0.
         6374.823              0.
         6380.895              0.
         6386.972              0.
         6393.055              0.
         6399.143              0.
         6405.241              0.
         6411.341              0.
         6417.451              0.
         6423.563              0.
         6429.681              0.
         6435.804              0.
         6441.934              0.
         6448.072              0.
         6454.213              0.
         6460.364              0.
         6466.513              0.
         6472.675              0.
         6478.839              0.
          6485.01              0.
         6491.189              0.
         6497.372              0.
         6503.563              0.
         6509.753              0.
         6515.957              0.
         6522.163              0.
         6528.374              0.
         6534.592              0.
         6540.818              0.
         6547.052              0.
         6553.283              0.
         6559.524              0.
         6565.775              0.
         6572.028              0.
         6578.288              0.
         6584.556              0.
         6590.824              0.
         6597.104              0.
         6603.387              0.
          6609.68              0.
         6615.975              0.
         6622.275              0.
         6628.586              0.
         6634.896              0.
         6641.218              0.
         6647.543              0.
         6653.878              0.
         6660.215              0.
         6666.558              0.
         6672.911              0.
         6679.262              0.
         6685.624              0.
         6691.994              0.
         6698.371              0.
         6704.751              0.
         6711.136              0.
         6717.528              0.
         6723.925              0.
         6730.329              0.
         6736.743              0.
         6743.163              0.
         6749.584              0.
         6756.013              0.
         6762.447              0.
         6768.887              0.
         6775.334              0.
         6781.791              0.
          6788.25              0.
         6794.718              0.
         6801.189              0.
         6807.667              0.
          6814.15              0.
          6820.64              0.
         6827.139              0.
         6833.642              0.
         6840.153              0.
         6846.664              0.
         6853.185              0.
         6859.715              0.
         6866.249              0.
         6872.792              0.
         6879.337              0.
         6885.893              0.
         6892.447              0.
         6899.011              0.
         6905.585              0.
         6912.162              0.
         6918.745              0.
         6925.338              0.
         6931.938              0.
         6938.536              0.
         6945.144              0.
         6951.762              0.
         6958.383              0.
          6965.01              0.
         6971.647              0.
         6978.283              0.
         6984.933              0.
         6991.585              0.
         6998.248              0.
         7004.913              0.
         7011.584              0.
         7018.266              0.
         7024.946              0.
          7031.64              0.
         7038.337              0.
         7045.044              0.
         7051.753              0.
         7058.469              0.
         7065.196              0.
          7071.92              0.
         7078.656              0.
         7085.401              0.
         7092.149              0.
         7098.908              0.
         7105.668              0.
         7112.439              0.
         7119.209              0.
          7125.99              0.
          7132.78              0.
         7139.573              0.
         7146.377              0.
         7153.183              0.
         7159.996              0.
         7166.815              0.
          7173.64              0.
         7180.476              0.
         7187.315              0.
         7194.164              0.
         7201.016              0.
         7207.874              0.
         7214.738              0.
         7221.609              0.
         7228.487              0.
         7235.375              0.
          7242.27              0.
         7249.167              0.
         7256.068              0.
         7262.982              0.
         7269.899              0.
         7276.823              0.
         7283.757              0.
         7290.694              0.
         7297.638              0.
         7304.588              0.
         7311.549              0.
         7318.512              0.
         7325.482              0.
         7332.463              0.
         7339.446              0.
         7346.436              0.
         7353.433              0.
          7360.44              0.
          7367.45              0.
         7374.467              0.
         7381.494              0.
         7388.524              0.
         7395.561              0.
         7402.604              0.
         7409.658              0.
         7416.715              0.
         7423.779              0.
         7430.853              0.
         7437.926              0.
          7445.01              0.
         7452.104              0.
         7459.206              0.
          7466.31              0.
          7473.42              0.
         7480.538              0.
         7487.663              0.
         7494.793              0.
         7501.936              0.
          7509.08              0.
         7516.236              0.
         7523.394              0.
          7530.56              0.
         7537.731              0.
          7544.91              0.
           7552.1              0.
         7559.292              0.
         7566.496              0.
         7573.702              0.
         7580.911              0.
         7588.135              0.
         7595.362              0.
           7602.6              0.
          7609.84              0.
         7617.092              0.
         7624.347              0.
         7631.604              0.
         7638.876              0.
         7646.151              0.
         7653.438              0.
         7660.727              0.
         7668.026              0.
          7675.33              0.
         7682.635              0.
         7689.956              0.
          7697.28              0.
         7704.611              0.
         7711.953              0.
         7719.302              0.
         7726.649              0.
         7734.008              0.
         7741.378              0.
          7748.75              0.
          7756.13              0.
         7763.521              0.
         7770.915              0.
         7778.316              0.
         7785.724              0.
         7793.144              0.
         7800.565              0.
         7807.995              0.
         7815.435              0.
         7822.878              0.
         7830.329              0.
         7837.786              0.
         7845.251              0.
         7852.727              0.
         7860.206              0.
         7867.696              0.
         7875.189              0.
         7882.685              0.
         7890.196              0.
         7897.711              0.
         7905.237              0.
         7912.766              0.
         7920.302              0.
         7927.845              0.
         7935.395              0.
         7942.957              0.
         7950.522              0.
         7958.098              0.
         7965.677              0.
         7973.264              0.
         7980.857              0.
         7988.458              0.
          7996.07     5.227135E-7
         8003.686     5.412074E-7
         8011.313              0.
         8018.943              0.
          8026.58              0.
         8034.224              0.
         8041.876              0.
         8049.535              0.
         8057.206              0.
         8064.883              0.
         8072.564     2.091665E-7
         8080.248     8.110632E-7
         8087.948     8.064911E-7
         8095.651     3.487684E-7
         8103.361              0.
         8111.083              0.
         8118.808              0.
         8126.544              0.
         8134.279     3.334524E-7
         8142.031     6.173776E-7
         8149.785     1.654704E-8
         8157.547     5.778532E-7
          8165.32     3.562114E-7
         8173.097              0.
         8180.885              0.
         8188.672              0.
         8196.476              0.
         8204.281     3.163046E-7
         8212.096     5.804612E-7
         8219.921     5.773744E-9
         8227.749              0.
         8235.581              0.
         8243.429     2.457116E-7
         8251.284     8.036747E-7
         8259.143     1.354927E-6
         8267.009     4.208095E-7
         8274.887              0.
         8282.768     1.922458E-7
         8290.651     6.453018E-7
         8298.552     9.933405E-8
         8306.455              0.
          8314.37              0.
         8322.289     1.540170E-7
          8330.22     6.685007E-7
         8338.153     6.641740E-7
          8346.09     2.580145E-7
         8354.043              0.
         8361.999              0.
         8369.968              0.
         8377.938     5.174841E-7
         8385.923     2.650819E-7
         8393.904              0.
         8401.898     1.227759E-7
         8409.905     6.388668E-7
         8417.915     6.432196E-7
         8425.937     2.606508E-7
         8433.961              0.
         8441.993     1.271369E-7
         8450.033     6.339400E-7
         8458.081     1.217044E-7
         8466.141              0.
         8474.204              0.
         8482.274              0.
         8490.357     2.240231E-8
         8498.443     5.276065E-7
         8506.538     6.228375E-7
         8514.639     3.328059E-7
         8522.748     1.700085E-7
          8530.87     6.165346E-7
         8538.994     6.144032E-7
         8547.132     6.122547E-7
         8555.267     6.100935E-7
          8563.42     4.000119E-7
         8571.575     9.541268E-8
         8579.738     5.877150E-7
         8587.915     6.012826E-7
         8596.094     5.990411E-7
         8604.285     3.410517E-7
         8612.475              0.
         8620.682     4.036804E-8
         8628.893     5.245843E-7
          8637.11     5.875903E-7
         8645.341     2.726788E-7
         8653.574              0.
         8661.821     1.057068E-7
         8670.065     5.741401E-7
         8678.327     9.626074E-8
         8686.593              0.
         8694.865     2.775127E-7
         8703.151     5.678590E-7
         8711.439     5.653048E-7
         8719.736     5.627341E-7
         8728.041     5.601473E-7
         8736.354     9.117811E-7
         8744.679     8.502149E-7
         8753.007     3.862246E-7
         8761.348     7.407201E-8
         8769.692     5.301420E-7
         8778.039     1.067309E-7
         8786.404     3.468455E-7
         8794.772     2.816937E-7
         8803.153              0.
         8811.537     8.198612E-8
         8819.929     5.268282E-7
         8828.334     5.278248E-7
         8836.737     1.712997E-7
         8845.157     2.693131E-7
         8853.582     3.333300E-7
         8862.019     1.042616E-7
         8870.459     5.136461E-7
         8878.906     5.107597E-7
         8887.367     5.078540E-7
         8895.827     2.107014E-7
         8904.304              0.
         8912.784              0.
         8921.277              0.
         8929.774              0.
         8938.278     4.056880E-7
         8946.791     4.870337E-7
         8955.313     4.839429E-7
         8963.846     4.808059E-7
         8972.383     4.776534E-7
         8980.933     4.744825E-7
         8989.486     4.712958E-7
         8998.048     4.680923E-7
         9006.617     1.572960E-7
         9015.195              0.
         9023.786     1.737035E-7
          9032.38     5.641092E-7
         9040.982     8.605959E-7
         9049.598     4.674484E-7
         9058.217     4.461951E-7
         9066.844     4.430050E-7
         9075.479     4.397980E-7
         9084.122     2.566150E-7
         9092.778     1.203932E-7
         9101.438     4.300720E-7
         9110.111     4.315460E-7
         9118.782     7.954338E-7
         9127.472     2.124755E-7
         9136.165     2.569977E-7
         9144.866     4.135175E-7
          9153.58     4.101529E-7
         9162.298     4.067720E-7
         9171.029     4.033715E-7
         9179.759     3.999573E-7
         9188.506     5.924592E-8
         9197.257     2.852442E-7
         9206.017     3.895995E-7
         9214.789     2.011994E-7
         9223.565     1.364146E-7
         9232.354     2.898241E-7
         9241.143     8.581608E-8
         9249.943     7.397392E-7
         9258.758     9.151066E-8
         9267.576     2.763008E-7
         9276.407     3.610304E-7
         9285.242     5.446767E-7
          9294.08     5.630087E-7
         9302.937     2.471728E-7
         9311.797     6.220699E-8
          9320.67     3.194996E-7
         9329.547     1.534596E-8
         9338.438              0.
         9347.331              0.
         9356.229              0.
         9365.145              0.
         9374.063     1.298457E-7
         9382.996     3.156621E-7
         9391.933     3.117645E-7
         9400.877     2.808521E-7
         9409.836     4.986061E-9
         9418.792              0.
         9427.768     2.299115E-7
         9436.746     2.919990E-7
         9445.733     1.228741E-7
         9454.735     1.344654E-7
         9463.739     2.799151E-7
         9472.753     2.758501E-7
         9481.774     2.235438E-7
         9490.805     2.153857E-8
         9499.849     2.595505E-7
         9508.896     2.601431E-7
         9517.957     2.567622E-7
         9527.022     2.533874E-7
         9536.096     2.500177E-7
         9545.178     2.466529E-7
         9554.269     1.394420E-7
         9563.373              0.
          9572.48     5.868448E-8
         9581.603     1.958619E-7
         9590.729              0.
         9599.862              0.
         9609.005              0.
         9618.156     1.793658E-7
         9627.321     2.165917E-7
          9636.49     7.485578E-8
         9645.674              0.
         9654.854     1.003272E-7
         9664.055     1.209101E-7
         9673.259              0.
         9682.472              0.
         9691.698              0.
         9700.929              0.
         9710.173              0.
         9719.415              0.
         9728.672     1.564884E-7
         9737.942     3.646175E-8
         9747.217              0.
         9756.506     1.110310E-7
         9765.797     7.034014E-8
         9775.098     8.362678E-8
         9784.408     8.989132E-8
         9793.727              0.
         9803.059              0.
         9812.396              0.
          9821.74              0.
           9831.1              0.
         9840.463              0.
         9849.835              0.
         9859.216     1.241744E-7
          9868.61     1.827812E-8
          9878.01              0.
         9887.417     9.281885E-8
         9896.839     1.219633E-7
          9906.26     4.443267E-8
         9915.699              0.
         9925.143              0.
         9934.601              0.
         9944.063              0.
         9953.533     3.642930E-8
         9963.018     6.982286E-8
         9972.501              0.
         9982.004     1.880029E-8
         9991.511     7.703533E-8
         10001.03     9.063916E-9
         10010.56     8.116805E-8
         10020.09              0.
         10029.63              0.
         10039.19              0.
         10048.75              0.
         10058.32              0.
         10067.91              0.
          10077.5              0.
         10087.09              0.
          10096.7     4.679023E-8
         10106.32     2.508911E-8
         10115.94     3.945114E-8
         10125.58     2.862382E-8
         10135.23              0.
         10144.88     2.995603E-8
         10154.54     5.969454E-8
         10164.22     5.805298E-8
          10173.9     5.642518E-8
         10183.59     3.515633E-8
         10193.28     1.747561E-8
           10203.     3.612153E-8
         10212.72              0.
         10222.45              0.
         10232.18     1.024745E-8
         10241.93     4.542072E-8
         10251.68     3.652214E-8
         10261.45              0.
         10271.23              0.
         10281.01              0.
         10290.79              0.
          10300.6              0.
         10310.41              0.
         10320.23              0.
         10330.06              0.
         10339.91              0.
         10349.76              0.
          10359.6              0.
         10369.48              0.
         10379.36              0.
         10389.24              0.
         10399.14              0.
         10409.04              0.
         10418.97     1.825657E-8
         10428.88     2.144306E-9
         10438.82              0.
         10448.76              0.
         10458.71              0.
         10468.68              0.
         10478.65              0.
         10488.63              0.
         10498.61     9.281868E-9
         10508.61     1.443002E-9
         10518.63     8.772708E-9
         10528.65     9.920843E-9
         10538.68     1.280214E-9
         10548.71              0.
         10558.76     8.070678E-9
         10568.82     1.061933E-9
         10578.88              0.
         10588.97              0.
         10599.05              0.
         10609.15              0.
         10619.25              0.
         10629.37              0.
         10639.49              0.
         10649.62     6.938636E-9
         10659.78    1.565609E-10
         10669.93              0.
         10680.09              0.
         10690.26              0.
         10700.44              0.
         10710.63    3.800370E-10
         10720.83     5.308145E-9
         10731.06    5.921252E-10
         10741.28     5.408357E-9
         10751.51     4.433898E-9
         10761.75              0.
           10772.              0.
         10782.25              0.
         10792.52              0.
          10802.8              0.
         10813.09              0.
          10823.4              0.
         10833.71              0.
         10844.03              0.
         10854.37              0.
         10864.69     1.559011E-9
         10875.04     1.570331E-9
         10885.41              0.
         10895.78              0.
         10906.15              0.
         10916.54              0.
         10926.94              0.
         10937.34              0.
         10947.76              0.
          10958.2     1.642431E-9
         10968.63    2.555428E-10
         10979.08     1.579897E-9
         10989.54     1.612165E-9
           11000.              0.
