#  Table wf3f255wsys.tab  Mon 12:22:12 02-Jun-97

#      WAVELENGTH      THROUGHPUT
#       angstroms                

            1216.    2.089621E-22
          1217.34    2.119185E-22
         1218.682    2.149002E-22
         1220.026    2.178980E-22
         1221.371    2.202619E-22
         1222.717    2.226427E-22
         1224.065    2.250433E-22
         1225.414    2.274621E-22
         1226.765    2.298997E-22
         1228.117    2.323560E-22
         1229.471    2.348309E-22
         1230.826    2.369576E-22
         1232.183    2.388644E-22
         1233.542    2.407840E-22
         1234.901    2.427139E-22
         1236.262    2.446567E-22
         1237.625    2.466108E-22
         1238.989    2.485781E-22
         1240.355    2.504332E-22
         1241.722    2.519391E-22
         1243.091    2.534532E-22
         1244.461    2.549749E-22
         1245.833    2.565035E-22
         1247.207    2.580412E-22
         1248.582    2.595860E-22
         1249.957    2.611377E-22
         1251.335    2.623504E-22
         1252.715    2.635570E-22
         1254.095    2.647677E-22
         1255.478    2.659842E-22
         1256.862    2.672051E-22
         1258.247    2.684302E-22
         1259.634    2.696606E-22
         1261.023    2.706776E-22
         1262.413    2.716196E-22
         1263.805    2.725643E-22
         1265.198    2.735116E-22
         1266.592    2.744613E-22
         1267.989    2.754143E-22
         1269.387    2.763704E-22
         1270.786    2.771879E-22
         1272.187    2.778978E-22
         1273.588    2.786085E-22
         1274.992    2.793209E-22
         1276.399    2.800348E-22
         1277.805    2.807493E-22
         1279.214    2.814653E-22
         1280.624    2.820961E-22
         1282.035    2.826178E-22
         1283.449    2.831404E-22
         1284.864    2.836629E-22
          1286.28    2.841853E-22
         1287.698    2.847083E-22
         1289.117    2.852314E-22
         1290.538    2.857012E-22
         1291.961    2.860830E-22
         1293.385    2.864643E-22
         1294.811    2.868451E-22
         1296.238    2.872255E-22
         1297.668    2.876057E-22
         1299.098    2.879852E-22
          1300.53    2.883313E-22
         1301.963    2.886206E-22
         1303.398    2.889089E-22
         1304.835    2.891965E-22
         1306.274    2.894834E-22
         1307.713    2.897691E-22
         1309.155    2.900542E-22
         1310.597    2.903093E-22
         1312.042    2.905226E-22
         1313.489    2.907347E-22
         1314.937    2.909458E-22
         1316.386    2.911555E-22
         1317.837    2.913641E-22
          1319.29    2.915715E-22
         1320.744    2.917494E-22
           1322.2    2.918987E-22
         1323.657    2.920465E-22
         1325.117    2.921930E-22
         1326.578    2.923380E-22
         1328.039    2.924816E-22
         1329.503    2.926239E-22
         1330.969    2.927314E-22
         1332.436    2.928202E-22
         1333.905    2.929075E-22
         1335.376    2.929931E-22
         1336.847    2.930770E-22
         1338.321    2.931593E-22
         1339.796    2.932399E-22
         1341.273    2.932896E-22
         1342.752    2.933328E-22
         1344.232    2.933741E-22
         1345.713    2.934137E-22
         1347.197    2.934514E-22
         1348.682    2.934874E-22
         1350.169    2.935186E-22
         1351.657    2.935260E-22
         1353.146    2.935314E-22
         1354.638    2.935085E-22
         1356.131    2.934486E-22
         1357.627    2.933869E-22
         1359.123    2.933235E-22
         1360.621    2.932524E-22
         1362.121    2.931714E-22
         1363.622    2.930886E-22
         1365.126    2.930039E-22
          1366.63    2.929174E-22
         1368.137    2.928290E-22
         1369.645    2.927388E-22
         1371.155    2.926463E-22
         1372.667    2.925517E-22
          1374.18    2.924554E-22
         1375.694    2.923572E-22
         1377.211    2.922571E-22
         1378.729    2.921551E-22
         1380.249    2.920527E-22
         1381.771    2.919557E-22
         1383.294    2.918568E-22
         1384.818    2.917561E-22
         1386.345    2.916535E-22
         1387.874    2.915491E-22
         1389.403    2.914428E-22
         1390.935    2.913481E-22
         1392.468    2.912602E-22
         1394.002    2.911706E-22
          1395.54    2.910791E-22
         1397.078    2.909859E-22
         1398.618    2.908910E-22
          1400.16    2.907972E-22
         1401.703    2.907278E-22
         1403.248    2.906567E-22
         1404.795    2.905838E-22
         1406.343    2.905094E-22
         1407.894    2.904332E-22
         1409.446    2.903554E-22
         1410.999    2.902854E-22
         1412.555    2.902189E-22
         1414.112    2.901508E-22
          1415.67    2.900812E-22
         1417.231    2.900098E-22
         1418.793    2.899369E-22
         1420.357    2.898608E-22
         1421.923    2.897781E-22
         1423.491    2.896938E-22
         1425.059    2.896079E-22
          1426.63    2.895202E-22
         1428.203    2.894310E-22
         1429.777    2.893401E-22
         1431.354    2.892289E-22
         1432.932    2.891129E-22
          1434.51    2.889953E-22
         1436.092    2.888759E-22
         1437.676    2.887548E-22
          1439.26    2.886320E-22
         1440.847    2.884846E-22
         1442.435    2.883154E-22
         1444.024    2.881445E-22
         1445.617    2.879716E-22
          1447.21    2.877969E-22
         1448.805    2.876204E-22
         1450.402    2.874259E-22
         1452.001    2.871812E-22
         1453.602    2.869342E-22
         1455.205    2.866855E-22
         1456.808    2.864348E-22
         1458.414    2.861820E-22
         1460.022    2.859262E-22
         1461.631    2.855898E-22
         1463.243    2.852514E-22
         1464.856    2.849108E-22
          1466.47    2.845682E-22
         1468.086    2.842232E-22
         1469.706    2.838758E-22
         1471.325    2.834428E-22
         1472.947    2.829887E-22
         1474.571    2.825321E-22
         1476.196    2.820734E-22
         1477.824    2.816118E-22
         1479.453    2.811481E-22
         1481.083    2.806035E-22
         1482.716    2.800162E-22
          1484.35    2.794264E-22
         1485.987    2.788339E-22
         1487.625    2.784533E-22
         1489.264    2.784153E-22
         1490.906    2.782955E-22
         1492.549    2.781074E-22
         1494.195    2.779123E-22
         1495.842    2.777101E-22
         1497.491    2.775010E-22
         1499.142    2.772848E-22
         1500.794    2.768869E-22
         1502.449    2.762909E-22
         1504.105    2.756866E-22
         1505.763    2.750731E-22
         1507.423    2.744508E-22
         1509.084    2.738199E-22
         1510.748    2.731312E-22
         1512.414    2.723748E-22
          1514.08    2.716094E-22
         1515.749    2.708345E-22
         1517.419    2.700507E-22
         1519.093    2.692569E-22
         1520.768    2.684248E-22
         1522.444    2.675488E-22
         1524.122    2.666637E-22
         1525.802    2.657690E-22
         1527.484    2.648649E-22
         1529.168    2.639515E-22
         1530.854    2.630143E-22
          1532.54    3.127951E-12
          1534.23    6.534306E-12
         1535.921    9.918793E-12
         1537.615    1.328232E-11
          1539.31    1.662007E-11
         1541.006    1.993652E-11
         1542.705    2.323020E-11
         1544.405    2.649851E-11
         1546.109    2.969817E-11
         1547.812    3.283207E-11
         1549.518    3.592743E-11
         1551.227    3.898811E-11
         1552.936    4.201009E-11
         1554.648    4.499450E-11
         1556.363    4.794145E-11
         1558.078    5.084640E-11
         1559.795    5.371325E-11
         1561.515    5.655828E-11
         1563.235    5.936678E-11
         1564.958    6.213931E-11
         1566.685    6.487590E-11
         1568.411    6.757243E-11
          1570.14    7.023537E-11
         1571.871    7.289287E-11
         1573.603    7.551421E-11
         1575.338    7.810207E-11
         1577.075    8.065628E-11
         1578.813    8.317310E-11
         1580.553    8.567334E-11
         1582.295    8.817703E-11
         1584.039    9.065068E-11
         1585.785    9.309273E-11
         1587.534    9.550320E-11
         1589.284    9.788205E-11
         1591.036    1.002749E-10
          1592.79    1.026712E-10
         1594.545    1.050387E-10
         1596.303    1.073799E-10
         1598.062    1.096935E-10
         1599.824    1.119794E-10
         1601.588    1.143307E-10
         1603.353    1.166681E-10
          1605.12    1.189837E-10
          1606.89    1.212765E-10
         1608.661    1.235464E-10
         1610.434    1.258229E-10
          1612.21    1.281720E-10
         1613.986    1.305021E-10
         1615.765    1.328153E-10
         1617.548    1.351119E-10
          1619.33    1.373879E-10
         1621.115    1.397357E-10
         1622.902    1.421232E-10
          1624.69    1.444968E-10
         1626.482    1.468599E-10
         1628.275    1.492082E-10
         1630.069    1.515507E-10
         1631.867    1.540364E-10
         1633.665    1.565135E-10
         1635.466    1.589861E-10
         1637.269    1.614504E-10
         1639.074    1.639073E-10
          1640.88    1.664448E-10
         1642.689    1.690748E-10
           1644.5    1.717035E-10
         1646.313    1.743312E-10
         1648.128    1.769685E-10
         1649.944    1.797463E-10
         1651.763    1.827285E-10
         1653.585    1.857289E-10
         1655.407    1.887361E-10
         1657.232    1.917553E-10
         1659.058    1.947831E-10
         1660.888    1.979240E-10
         1662.719    2.011842E-10
         1664.552    2.044616E-10
         1666.386    2.077545E-10
         1668.223    2.110662E-10
         1670.062    2.144018E-10
         1671.903    2.179483E-10
         1673.746    2.215182E-10
          1675.59    2.251104E-10
         1677.437    2.287285E-10
         1679.287    2.323708E-10
         1681.139    2.361552E-10
         1682.991    2.400375E-10
         1684.847    2.439523E-10
         1686.704    2.478978E-10
         1688.563    2.518722E-10
         1690.425    2.559213E-10
         1692.287    2.601346E-10
         1694.153    2.643870E-10
         1696.021    2.686765E-10
          1697.89    2.730010E-10
         1699.762    2.773675E-10
         1701.636    2.819106E-10
         1703.512    2.865173E-10
         1705.389    2.911643E-10
         1707.269    2.958575E-10
         1709.151    3.005945E-10
         1711.035    3.054574E-10
         1712.922    3.104353E-10
         1714.809    3.154602E-10
         1716.699    3.205368E-10
         1718.592    3.256634E-10
         1720.485    3.308700E-10
         1722.383    3.362288E-10
         1724.281    3.416361E-10
         1726.182    3.471018E-10
         1728.086    3.526258E-10
          1729.99    3.582004E-10
         1731.897    3.639456E-10
         1733.806    3.697516E-10
         1735.718    3.756180E-10
          1737.63    3.815423E-10
         1739.546    3.875308E-10
         1741.463    3.936506E-10
         1743.383    3.998561E-10
         1745.305    4.061270E-10
         1747.228    4.124608E-10
         1749.154    4.188642E-10
         1751.084    4.249662E-10
         1753.013    4.308244E-10
         1754.946    4.367341E-10
          1756.88    4.426932E-10
         1758.817    4.487014E-10
         1760.756    4.547822E-10
         1762.697    4.609494E-10
         1764.639    4.671650E-10
         1766.585    4.734353E-10
         1768.532    4.797580E-10
         1770.482    4.861484E-10
         1772.434    4.926377E-10
         1774.387    4.991813E-10
         1776.343    5.057767E-10
         1778.301    5.124302E-10
         1780.262    5.191503E-10
         1782.224    5.259709E-10
         1784.189    5.328523E-10
         1786.156    5.397913E-10
         1788.124    5.467849E-10
         1790.096    5.538466E-10
         1792.068    5.610241E-10
         1794.044    5.682654E-10
         1796.022    5.755676E-10
         1798.001    5.829274E-10
         1799.984    5.903558E-10
         1801.968    5.979003E-10
         1803.954    6.055087E-10
         1805.942    6.131776E-10
         1807.933    6.209137E-10
         1809.926    6.287144E-10
         1811.922    6.366473E-10
         1813.919    6.446488E-10
         1815.918    6.527132E-10
          1817.92    6.608495E-10
         1819.925    6.690569E-10
          1821.93    6.773909E-10
         1823.938    6.858007E-10
         1825.948    6.942774E-10
         1827.962    7.028327E-10
         1829.976    7.114510E-10
         1831.995    7.202217E-10
         1834.013    7.290575E-10
         1836.035    7.379717E-10
         1838.059    7.469602E-10
         1840.084    7.560216E-10
         1842.113    7.652320E-10
         1844.144    7.745192E-10
         1846.177    7.838835E-10
         1848.212    7.933260E-10
         1850.248    8.028514E-10
         1852.288    8.125277E-10
          1854.33    8.222848E-10
         1856.375    8.321284E-10
         1858.421    8.420429E-10
         1860.469    8.520634E-10
          1862.52    8.622264E-10
         1864.573    8.724784E-10
         1866.628    8.828157E-10
         1868.686    8.932380E-10
         1870.746    9.037758E-10
         1872.808    9.144528E-10
         1874.872    9.252130E-10
         1876.939    9.360671E-10
         1879.008    9.470073E-10
         1881.079    9.572508E-10
         1883.153    9.676070E-10
         1885.229    9.780353E-10
         1887.307    9.885306E-10
         1889.387    9.991032E-10
         1891.471     3.283862E-8
         1893.555     7.832154E-8
         1895.643     1.243212E-7
         1897.732     1.708133E-7
         1899.823     2.177806E-7
         1901.919     2.653165E-7
         1904.014     3.133141E-7
         1906.113     3.618495E-7
         1908.215     4.108996E-7
         1910.317     5.068939E-7
         1912.424     8.671199E-7
         1914.532     1.230935E-6
         1916.643     1.599032E-6
         1918.755     1.970746E-6
          1920.87     2.346675E-6
         1922.988     2.726729E-6
         1925.107     3.110669E-6
          1927.23     3.499067E-6
         1929.354     3.891183E-6
         1931.481     4.111083E-6
          1933.61     4.255690E-6
          1935.74     4.401628E-6
         1937.875     4.549138E-6
         1940.011     4.697915E-6
         1942.149     4.848458E-6
          1944.29     5.000445E-6
         1946.434     5.153892E-6
          1948.58     5.308797E-6
         1950.728     5.456520E-6
         1952.878     5.588635E-6
          1955.03     5.721904E-6
         1957.185     5.856456E-6
         1959.343     5.992224E-6
         1961.503     6.129394E-6
         1963.665     6.267876E-6
         1965.829     6.407534E-6
         1967.996     6.548513E-6
         1970.167     6.690128E-6
         1972.339     6.824536E-6
         1974.512     6.960054E-6
         1976.689     7.096824E-6
         1978.868     7.234778E-6
         1981.049     7.374045E-6
         1983.233     7.514650E-6
         1985.418     7.656388E-6
         1987.607     7.799417E-6
         1989.798     7.943660E-6
         1991.992     8.179162E-6
         1994.188     8.426054E-6
         1996.386     8.675250E-6
         1998.586     8.926645E-6
         2000.789     9.183404E-6
         2002.996     9.448168E-6
         2005.203     9.715503E-6
         2007.414     9.985822E-6
         2009.627     1.025901E-5
         2011.841     1.049519E-5
          2014.06     1.072590E-5
         2016.279     1.095870E-5
         2018.502     1.119397E-5
         2020.727     1.143156E-5
         2022.955     1.167142E-5
         2025.185     1.191366E-5
         2027.417     1.215831E-5
         2029.652     1.240536E-5
         2031.889     1.285199E-5
         2034.129     1.334017E-5
         2036.371     1.383373E-5
         2038.616     1.433259E-5
         2040.864     1.483666E-5
         2043.112     1.534565E-5
         2045.365     1.586029E-5
         2047.621     1.638064E-5
         2049.877     1.690595E-5
         2052.137     1.747017E-5
         2054.399     1.804215E-5
         2056.664     1.862008E-5
         2058.931     1.920407E-5
         2061.201     1.979337E-5
         2063.472     2.038779E-5
         2065.747     2.098849E-5
         2068.024     2.159532E-5
         2070.304     2.222002E-5
         2072.586     2.292823E-5
         2074.871     2.364348E-5
         2077.157     2.436565E-5
         2079.447     2.509533E-5
          2081.74     2.583084E-5
         2084.034     2.657233E-5
         2086.332     2.732133E-5
         2088.632     2.807765E-5
         2090.933     2.893817E-5
          2093.24     2.995170E-5
         2095.546     3.097401E-5
         2097.856     3.200676E-5
         2100.169     3.304929E-5
         2102.483     3.409761E-5
         2104.802     3.515698E-5
         2107.121     3.622514E-5
         2109.444     3.730393E-5
         2111.769     3.852103E-5
         2114.097     3.979000E-5
         2116.428     4.107057E-5
          2118.76     4.236229E-5
         2121.097     4.366366E-5
         2123.434     4.497142E-5
         2125.775     4.629130E-5
         2128.118     4.762285E-5
         2130.463     4.902042E-5
         2132.813     5.065702E-5
         2135.163     5.230605E-5
         2137.518     5.397081E-5
         2139.875     5.566468E-5
         2142.231     5.736471E-5
         2144.594     5.908158E-5
         2146.958     6.081261E-5
         2149.325     6.255865E-5
         2151.693     6.470663E-5
         2154.065     6.702916E-5
          2156.44     6.937129E-5
         2158.817     7.173334E-5
         2161.197     7.410674E-5
         2163.578     7.648891E-5
         2165.964     7.889171E-5
         2168.353     8.131481E-5
         2170.743     8.393555E-5
         2173.135     8.697486E-5
         2175.529     9.003731E-5
         2177.929     9.312620E-5
         2180.329     9.623133E-5
         2182.733     9.933853E-5
         2185.138     1.024645E-4
         2187.547     1.056141E-4
         2189.959     1.087859E-4
         2192.372     1.128880E-4
         2194.789     1.170345E-4
         2197.208     1.212086E-4
         2199.632     1.254118E-4
         2202.056     1.303943E-4
         2204.482     1.355919E-4
         2206.912     1.408771E-4
         2209.345     1.462481E-4
         2211.782     1.528300E-4
         2214.219     1.599287E-4
          2216.66     1.671476E-4
         2219.104     1.744841E-4
         2221.549     1.819158E-4
         2223.998     1.894559E-4
         2226.449     1.971134E-4
         2228.904     2.048898E-4
         2231.361     2.139460E-4
          2233.82     2.240822E-4
         2236.284     2.343856E-4
         2238.748     2.448368E-4
         2241.217     2.554356E-4
         2243.687     2.661591E-4
         2246.159     2.770400E-4
         2248.636     2.880902E-4
         2251.114     3.007653E-4
         2253.597     3.154610E-4
          2256.08     3.303563E-4
         2258.567     3.454743E-4
         2261.057     3.607864E-4
         2263.548     3.762711E-4
         2266.045     3.919871E-4
         2268.542     4.079037E-4
         2271.042     4.259845E-4
         2273.546     4.470455E-4
         2276.051     4.683851E-4
         2278.562     4.900362E-4
         2281.072     5.119357E-4
         2283.588     5.341140E-4
         2286.104     5.565612E-4
         2288.623     5.793025E-4
         2291.147     6.057040E-4
         2293.672     6.364650E-4
         2296.202     6.676795E-4
         2298.732     6.995307E-4
         2301.266     7.318052E-4
         2303.803     7.644842E-4
         2306.342     7.975824E-4
         2308.885     8.311477E-4
         2311.431     8.696708E-4
         2313.979     9.122571E-4
          2316.53     9.554052E-4
         2319.082     9.990928E-4
         2321.639     0.001043312
         2324.198      0.00108806
          2326.76     0.001133376
         2329.325     0.001179257
         2331.892     0.001232571
         2334.463     0.001289045
         2337.038     0.001346258
         2339.613     0.001404116
         2342.193     0.001462642
         2344.774     0.001521796
         2347.357     0.001581657
         2349.947     0.001642296
         2352.536     0.001709673
         2355.131     0.001778041
         2357.726      0.00184714
         2360.326     0.001917091
         2362.927     0.001987594
         2365.531     0.002058904
          2368.14     0.002131086
         2370.749     0.002203868
         2373.364     0.002277186
         2375.979     0.002351228
         2378.598     0.002426117
          2381.22     0.002501692
         2383.844     0.002577882
         2386.473     0.002654961
         2389.103     0.002732766
         2391.737     0.002804655
         2394.373     0.002873746
         2397.012     0.002943493
         2399.656     0.003013991
           2402.3      0.00308479
         2404.949     0.003156292
           2407.6     0.003228436
         2410.252     0.003299652
          2412.91     0.003356833
          2415.57     0.003414479
         2418.233     0.003472624
         2420.898     0.003531127
         2423.567     0.003589928
         2426.238     0.003649221
         2428.913     0.003709017
         2431.591      0.00375851
         2434.271     0.003800963
         2436.954     0.003843695
         2439.641     0.003886777
         2442.331     0.003929921
         2445.022     0.003973316
         2447.718     0.004017039
         2450.416     0.004058729
         2453.117     0.004087806
         2455.822     0.004117032
         2458.528     0.004146397
         2461.239     0.004175849
         2463.951     0.004205312
         2466.669     0.004234957
         2469.387     0.004264725
         2472.108     0.004287122
         2474.834     0.004307416
         2477.561     0.004327746
         2480.294     0.004348143
         2483.027     0.004368494
         2485.764      0.00438891
         2488.504     0.004409386
         2491.246     0.004426896
         2493.994     0.004440814
         2496.742      0.00445471
         2499.494     0.004468604
          2502.25      0.00448249
         2505.007     0.004496359
          2507.77     0.004510235
         2510.533     0.004523564
         2513.302     0.004534693
         2516.072     0.004545772
         2518.844     0.004556817
         2521.622     0.004567867
         2524.401      0.00457889
         2527.185     0.004589885
         2529.969     0.004600832
         2532.759     0.004609008
         2535.551     0.004617086
         2538.344     0.004620021
         2541.144     0.004617433
         2543.946     0.004614809
          2546.75     0.004612086
         2549.558     0.004609263
         2552.367     0.004604894
          2555.18     0.004600142
         2557.997      0.00459528
         2560.817     0.004590357
         2563.639     0.004585449
         2566.465     0.004580425
         2569.294     0.004575291
         2572.128     0.004568446
         2574.962     0.004560956
           2577.8     0.004553341
         2580.643     0.004545656
         2583.486     0.004538069
         2586.336     0.004530349
         2589.186      0.00452251
         2592.039     0.004512189
         2594.897     0.004500771
         2597.757     0.004489219
         2600.622     0.004477571
         2603.487     0.004466018
         2606.357     0.004454309
         2609.231      0.00444245
         2612.106     0.004428825
         2614.985     0.004414436
          2617.87     0.004399873
         2620.754     0.004385232
         2623.643     0.004370617
         2626.536     0.004355835
         2629.431     0.004340886
         2632.328     0.004322937
         2635.232     0.004304086
         2638.135     0.004285063
         2641.045     0.004265902
         2643.955     0.004246695
          2646.87     0.004227285
         2649.788     0.004207685
         2652.708     0.004186327
         2655.633     0.004164618
          2658.56     0.004142727
          2661.49     0.004120725
         2664.424     0.004098615
          2667.36      0.00407631
         2670.302     0.004053316
         2673.244     0.004026121
         2676.193     0.003998664
         2679.142     0.003971004
         2682.094     0.003943254
         2685.052     0.003915301
         2688.012      0.00388713
         2690.975     0.003858335
          2693.94     0.003828523
          2696.91     0.003798457
         2699.883     0.003768151
         2702.858     0.003744485
         2705.839     0.003720755
         2708.822     0.003696713
         2711.807     0.003671247
         2714.796     0.003644702
         2717.789     0.003617809
         2720.785     0.003590595
         2723.785     0.003563099
         2726.788     0.003535252
         2729.792     0.003507067
         2732.802     0.003476879
         2735.814     0.003446199
          2738.83     0.003415147
         2741.849     0.003383754
         2744.872     0.003352005
         2747.898     0.003319879
         2750.926     0.003283978
         2753.958     0.003240089
         2756.994     0.003196062
         2760.034     0.003151892
         2763.076     0.003107533
         2766.121     0.003063056
         2769.172      0.00301839
         2772.223     0.002972549
         2775.281     0.002926114
         2778.339      0.00287958
           2781.4     0.002832866
         2784.468     0.002785926
         2787.536     0.002738887
          2790.61     0.002691687
         2793.685     0.002644516
         2796.765     0.002597179
         2799.848     0.002549702
         2802.933     0.002502047
         2806.025     0.002454201
         2809.117     0.002406262
         2812.213     0.002358166
         2815.314      0.00230993
         2818.417     0.002261555
         2821.524     0.002213005
         2824.633     0.002164308
         2827.749     0.002115423
         2830.865     0.002067121
         2833.985     0.002020417
         2837.109     0.001973585
         2840.236     0.001926633
         2843.368     0.001879445
         2846.501     0.001832171
         2849.641     0.001784718
         2852.781     0.001740092
         2855.924     0.001695721
         2859.074     0.001651185
         2862.226     0.001606523
         2865.381     0.001561732
          2868.54     0.001516818
         2871.701     0.001473915
         2874.866      0.00143269
         2878.036     0.001391353
         2881.208     0.001349909
         2884.385     0.001308346
         2887.563     0.001266695
         2890.748     0.001226253
         2893.935     0.001190157
         2897.123     0.001153988
         2900.317     0.001117457
         2903.515     0.001078645
         2906.715     0.001039907
          2909.92     0.001001238
         2913.126     9.680167E-4
         2916.338     9.349765E-4
         2919.552     9.020025E-4
         2922.773     8.690632E-4
         2925.993     8.362202E-4
         2929.217     8.034408E-4
         2932.448     7.750328E-4
         2935.679     7.480934E-4
         2938.916     7.211958E-4
         2942.155     6.943553E-4
         2945.399     6.675703E-4
         2948.646     6.408406E-4
         2951.895     6.168966E-4
         2955.151     5.949222E-4
         2958.407     5.730179E-4
         2961.668     5.511509E-4
         2964.933     5.293342E-4
           2968.2     5.075755E-4
         2971.474     4.877748E-4
         2974.748     4.703896E-4
         2978.027     4.530359E-4
          2981.31     4.357193E-4
         2984.595     4.184471E-4
         2987.887     4.012002E-4
         2991.179     3.776640E-4
         2994.477     3.428072E-4
         2997.778     3.080413E-4
         3001.083     2.814631E-4
         3004.391     2.715604E-4
         3007.702     2.616872E-4
         3011.019     2.517509E-4
         3014.337     2.416753E-4
         3017.658     2.316258E-4
         3020.987     2.222849E-4
         3024.317     2.146164E-4
         3027.651     2.069675E-4
         3030.987     1.993024E-4
         3034.328     1.915609E-4
         3037.673     1.838399E-4
         3041.022     1.766315E-4
         3044.375     1.705622E-4
         3047.731     1.645095E-4
         3051.089     1.584402E-4
         3054.454     1.523075E-4
          3057.82     1.461975E-4
         3061.191     1.405506E-4
         3064.565     1.357400E-4
         3067.944     1.309427E-4
         3071.326     1.261421E-4
          3074.71     1.213312E-4
           3078.1     1.165321E-4
         3081.495     1.122149E-4
          3084.89     1.085116E-4
         3088.292     1.048156E-4
         3091.696     1.010486E-4
         3095.102     9.720748E-5
         3098.516     9.337378E-5
          3101.93     9.027957E-5
         3105.351     8.773235E-5
         3108.773     8.517495E-5
           3112.2     8.248619E-5
         3115.631     7.971820E-5
         3119.064     7.693765E-5
         3122.504     7.469355E-5
         3125.945     7.264758E-5
         3129.391     7.059005E-5
         3132.841     6.838667E-5
         3136.294     6.614302E-5
         3139.752     6.388808E-5
         3143.211     6.213591E-5
         3146.678     6.041306E-5
         3150.145     5.868139E-5
         3153.618     5.689671E-5
         3157.095     5.510318E-5
         3160.573     5.337365E-5
         3164.059     5.200001E-5
         3167.546     5.062085E-5
         3171.039     4.922648E-5
         3174.533     4.781018E-5
         3178.031     4.638684E-5
         3181.536     4.508031E-5
         3185.044     4.392875E-5
         3188.555     4.277144E-5
         3192.068     4.159514E-5
         3195.587     4.040262E-5
          3199.11     3.920418E-5
         3202.637     3.819938E-5
         3206.167     3.725718E-5
           3209.7     3.631068E-5
         3213.239     3.534861E-5
         3216.781     3.438077E-5
         3220.327     3.342648E-5
         3223.877     3.264953E-5
         3227.431     3.186857E-5
         3230.989     3.107051E-5
         3234.549     3.023442E-5
         3238.115     2.939366E-5
         3241.685     2.863385E-5
         3245.259     2.796567E-5
         3248.836     2.729408E-5
         3252.418     2.661890E-5
         3256.003     2.594021E-5
         3259.591     2.525843E-5
         3263.186     2.470251E-5
         3266.781     2.416107E-5
         3270.383     2.361396E-5
         3273.988     2.304237E-5
         3277.596     2.246814E-5
         3281.209     2.193210E-5
         3284.826     2.147595E-5
         3288.449     2.101721E-5
         3292.073     2.052101E-5
           3295.7     1.999552E-5
         3299.335     1.946682E-5
          3302.97     1.903907E-5
         3306.614     1.863187E-5
         3310.257     1.822390E-5
         3313.906     1.782548E-5
         3317.559     1.742504E-5
         3321.215     1.703975E-5
         3324.878     1.668644E-5
         3328.542     1.633170E-5
         3332.211     1.596727E-5
         3335.885     1.559587E-5
          3339.56     1.522276E-5
         3343.244     1.495081E-5
         3346.927     1.469180E-5
         3350.619     1.442014E-5
         3354.311     1.409259E-5
         3358.007     1.376334E-5
          3361.71     1.346880E-5
         3365.415     1.321591E-5
         3369.126     1.296144E-5
         3372.839     1.268559E-5
         3376.557     1.240188E-5
         3380.279     1.212377E-5
         3384.004     1.193168E-5
         3387.736     1.173836E-5
         3391.469     1.152290E-5
         3395.208     1.127327E-5
         3398.953     1.102218E-5
         3402.698     1.080951E-5
         3406.449     1.061098E-5
         3410.204     1.041362E-5
         3413.964     1.025446E-5
         3417.727     1.009445E-5
         3421.493     9.922679E-6
         3425.265     9.733145E-6
         3429.043     9.542501E-6
         3432.821     9.361604E-6
         3436.606     9.183234E-6
         3440.394     9.005371E-6
         3444.185     8.839366E-6
         3447.984     8.672282E-6
         3451.783     8.524589E-6
         3455.588     8.398863E-6
         3459.398     8.272428E-6
         3463.211     8.121083E-6
         3467.029     7.964341E-6
          3470.85     7.813283E-6
         3474.678     7.683966E-6
         3478.506     7.554052E-6
         3482.339     7.432416E-6
          3486.18     7.315731E-6
         3490.023     7.198458E-6
         3493.871     7.080559E-6
          3497.72     6.962051E-6
         3501.576     6.842864E-6
         3505.437     6.723078E-6
         3509.301     6.602605E-6
          3513.17     6.506135E-6
         3517.041     6.414613E-6
         3520.918     6.318937E-6
         3524.799     6.211180E-6
         3528.685     6.102803E-6
         3532.575     6.014104E-6
         3536.468     5.935330E-6
         3540.368     5.853104E-6
         3544.269     5.742570E-6
         3548.176     5.631344E-6
         3552.088     5.544339E-6
         3556.004     5.478616E-6
         3559.924     5.412496E-6
         3563.846     5.315427E-6
         3567.777     5.217089E-6
         3571.708     5.131958E-6
         3575.644     5.064203E-6
         3579.588     4.995975E-6
         3583.534     4.927445E-6
         3587.484     4.858515E-6
         3591.439     4.789174E-6
         3595.396     4.719464E-6
          3599.36     4.649296E-6
         3603.328     4.592334E-6
         3607.301     4.537652E-6
         3611.277     4.477394E-6
         3615.256     4.405687E-6
         3619.242     4.333519E-6
         3623.234     4.274305E-6
         3627.226     4.217946E-6
         3631.223     4.161224E-6
         3635.228     4.104075E-6
         3639.237     4.046579E-6
         3643.247     3.988793E-6
         3647.261     3.930658E-6
         3651.284     3.877507E-6
         3655.307     3.835618E-6
         3659.335     3.793465E-6
         3663.371     3.736799E-6
         3667.408     3.677035E-6
         3671.453     3.623004E-6
         3675.498     3.579705E-6
         3679.552     3.536091E-6
         3683.606     3.492252E-6
         3687.665     3.448144E-6
         3691.732     3.403719E-6
           3695.8     3.359066E-6
         3699.876     3.314093E-6
         3703.953     3.268890E-6
         3708.039     3.223363E-6
         3712.124     3.186803E-6
         3716.215     3.158539E-6
         3720.313     3.128700E-6
         3724.413     3.082195E-6
         3728.521     3.035355E-6
         3732.629     2.999791E-6
         3736.746     2.970480E-6
         3740.863     2.937212E-6
         3744.985     2.889365E-6
         3749.116     2.841177E-6
         3753.247     2.807133E-6
         3757.386     2.776775E-6
         3761.526     2.739447E-6
         3765.675     2.690144E-6
         3769.824     2.640593E-6
         3773.978     2.626433E-6
         3778.141     2.613740E-6
         3782.304     2.590579E-6
         3786.473     2.558836E-6
         3790.648     2.526890E-6
         3794.824     2.494735E-6
          3799.01     2.462347E-6
         3803.196     2.429817E-6
         3807.389     2.397072E-6
         3811.586     2.371370E-6
          3815.79     2.357463E-6
         3819.994     2.343472E-6
         3824.203     2.309997E-6
         3828.419     2.276274E-6
          3832.64     2.242344E-6
         3836.865     2.208206E-6
         3841.095     2.178949E-6
         3845.331     2.164118E-6
         3849.568     2.149202E-6
          3853.81     2.134161E-6
         3858.058     2.119010E-6
         3862.312     2.092880E-6
         3866.572     2.057403E-6
         3870.832     2.025677E-6
         3875.099     2.009986E-6
         3879.369     1.994201E-6
         3883.646     1.960958E-6
         3887.927     1.924509E-6
         3892.213     1.898401E-6
         3896.504     1.882060E-6
           3900.8     1.865609E-6
           3905.1     1.849033E-6
         3909.403     1.832360E-6
         3913.712     1.815550E-6
         3918.027     1.798631E-6
         3922.346     1.781592E-6
          3926.67     1.764435E-6
         3930.999     1.747170E-6
         3935.333     1.729797E-6
         3939.669     1.712326E-6
         3944.012     1.675044E-6
          3948.36     1.635918E-6
         3952.712     1.609908E-6
          3957.07     1.591842E-6
         3961.432     1.573652E-6
         3965.799     1.555322E-6
         3970.169     1.537734E-6
         3974.546     1.540941E-6
         3978.927     1.544155E-6
         3983.314     1.530814E-6
         3987.705     1.512014E-6
         3992.101     1.493085E-6
           3996.5     1.474034E-6
         4000.906     1.454196E-6
         4005.316     1.431718E-6
         4009.732     1.409223E-6
         4014.152     1.386686E-6
         4018.577     1.364132E-6
         4023.008     1.341544E-6
          4027.44     1.318944E-6
          4031.88     1.305750E-6
         4036.325     1.305399E-6
         4040.775     1.301154E-6
         4045.229     1.278424E-6
         4049.689     1.255681E-6
         4054.153     1.232904E-6
          4058.62     1.210124E-6
         4063.094     1.187305E-6
         4067.574     1.164468E-6
         4072.058     1.151917E-6
         4076.547     1.151508E-6
         4081.041     1.145885E-6
         4085.538     1.122958E-6
         4090.042     1.100219E-6
         4094.548     1.099799E-6
         4099.064     1.099377E-6
         4103.583     1.081029E-6
         4108.107     1.057989E-6
         4112.636     1.034940E-6
         4117.165     1.011905E-6
         4121.706     9.973249E-7
          4126.25     9.968675E-7
         4130.799     9.924279E-7
         4135.353     9.692891E-7
         4139.911     9.461463E-7
         4144.473     9.452575E-7
          4149.04     9.448100E-7
         4153.616     9.263659E-7
         4158.195     9.031471E-7
         4162.779     8.937220E-7
         4167.366     8.932624E-7
         4171.962     8.830633E-7
         4176.559     8.598008E-7
         4181.163     8.422896E-7
         4185.772     8.418336E-7
         4190.385     8.394712E-7
         4195.006     8.161389E-7
         4199.629     7.928269E-7
         4204.261     7.917474E-7
         4208.894     7.926074E-7
         4213.531     7.934672E-7
         4218.178     7.943289E-7
         4222.826     7.811369E-7
         4227.484     7.587990E-7
         4232.142     7.470777E-7
          4236.81     7.478757E-7
         4241.478     7.412934E-7
         4246.151     7.187229E-7
         4250.835     7.002299E-7
         4255.519     7.009653E-7
         4260.212     7.017021E-7
         4264.907     7.024275E-7
         4269.606     7.031541E-7
         4274.315     6.821871E-7
         4279.025     6.591876E-7
         4283.744     6.549484E-7
         4288.464     6.556148E-7
         4293.194     6.562819E-7
         4297.925     6.569486E-7
         4302.661     6.441515E-7
         4307.406     6.207671E-7
         4312.152     6.082413E-7
         4316.909     6.088501E-7
         4321.665     6.094587E-7
         4326.432     6.100680E-7
         4331.199     6.045771E-7
         4335.971     5.808690E-7
         4340.753     5.609042E-7
         4345.537     5.614551E-7
          4350.33     5.620067E-7
         4355.123     5.625501E-7
         4359.926     5.630949E-7
          4364.73     5.394076E-7
          4369.54     5.152702E-7
         4374.359     5.134049E-7
         4379.179     5.139005E-7
         4384.009     5.143969E-7
          4388.84     5.148935E-7
          4393.68     5.153844E-7
         4398.521     5.158735E-7
         4403.368     5.163682E-7
         4408.225     5.168662E-7
         4413.082     5.014137E-7
          4417.95     4.766822E-7
         4422.817     4.665066E-7
         4427.696     4.669494E-7
         4432.574     4.673881E-7
         4437.458     4.678237E-7
         4442.353     4.682634E-7
         4447.248     4.687065E-7
         4452.153     4.579250E-7
         4457.059     4.327550E-7
          4461.97     4.177965E-7
         4466.891     4.181857E-7
         4471.813     4.185750E-7
         4476.745     4.189647E-7
         4481.678     4.193546E-7
         4486.618     4.197449E-7
         4491.564     4.201356E-7
         4496.514     4.205260E-7
         4501.473     4.136497E-7
         4506.433     3.894062E-7
         4511.401     3.723201E-7
         4516.375     3.741131E-7
         4521.355     3.759106E-7
         4526.337     3.777126E-7
         4531.325     3.795155E-7
          4536.32     3.813179E-7
         4541.321     3.831226E-7
         4546.328     3.849294E-7
         4551.339     3.867402E-7
         4556.357     3.885576E-7
          4561.38     3.826806E-7
         4566.406     3.563018E-7
          4571.44     3.377233E-7
         4576.479     3.392843E-7
         4581.527     3.408482E-7
         4586.575     3.424125E-7
         4591.632     3.439798E-7
         4596.691     3.455483E-7
         4601.758     3.471197E-7
         4606.832     3.486932E-7
          4611.91     3.502688E-7
         4616.994     3.518464E-7
         4622.084     3.534239E-7
          4627.18     3.550004E-7
         4632.278     3.430432E-7
         4637.385     3.140835E-7
         4642.497     2.997954E-7
         4647.615     3.011205E-7
         4652.738     3.024472E-7
         4657.868     3.037757E-7
         4663.002     3.051031E-7
         4668.141     3.064299E-7
         4673.287     3.077620E-7
         4678.438     3.090975E-7
         4683.596     3.104349E-7
         4688.759     3.117740E-7
         4693.928     3.131111E-7
           4699.1     3.144480E-7
         4704.281     3.157915E-7
         4709.467     3.171376E-7
         4714.658     3.184810E-7
         4719.856     3.198260E-7
         4725.059     2.886798E-7
         4730.268     2.580240E-7
          4735.48     2.591034E-7
         4740.701     2.601854E-7
         4745.927     2.612722E-7
         4751.159     2.623595E-7
         4756.396     2.634450E-7
          4761.64     2.645331E-7
         4766.889     2.656256E-7
         4772.142     2.667191E-7
         4777.402     2.678146E-7
         4782.669     2.689094E-7
         4787.941     2.700034E-7
          4793.22     2.711016E-7
         4798.504     2.722028E-7
         4803.791     2.733047E-7
         4809.087     2.744088E-7
         4814.389     2.755108E-7
         4819.696     2.766134E-7
         4825.009     2.777217E-7
         4830.328     2.765442E-7
         4835.653     2.403777E-7
         4840.981     2.107913E-7
         4846.318     2.116272E-7
         4851.661     2.124629E-7
         4857.009     2.132972E-7
         4862.364     2.141343E-7
         4867.724     2.149746E-7
          4873.09     2.158157E-7
         4878.457     2.166571E-7
         4883.838     2.175010E-7
         4889.222     2.183456E-7
         4894.612     2.191912E-7
         4900.008     2.200380E-7
         4905.409     2.208893E-7
         4910.814     2.217409E-7
         4916.228     2.225910E-7
         4921.648     2.234423E-7
         4927.074     2.242946E-7
         4932.505     2.251480E-7
          4937.94     2.260020E-7
         4943.386     2.268604E-7
         4948.833     2.277207E-7
         4954.289     2.285824E-7
          4959.75     2.294452E-7
         4965.216     2.303051E-7
         4970.692     2.311672E-7
         4976.169     2.320331E-7
         4981.658     2.329011E-7
         4987.146     2.337692E-7
         4992.642     2.139778E-7
         4998.148     1.715419E-7
         5003.656     1.576600E-7
         5009.174     1.583517E-7
         5014.694     1.590437E-7
         5020.219     1.597368E-7
         5025.756     1.604340E-7
         5031.294     1.611310E-7
         5036.843     1.618275E-7
         5042.394     1.625255E-7
         5047.955     1.632266E-7
         5053.517     1.639262E-7
         5059.085     1.646257E-7
         5064.665     1.653292E-7
         5070.246     1.660335E-7
         5075.838     1.667394E-7
         5081.431     1.674449E-7
         5087.036     1.681499E-7
         5092.641     1.688564E-7
         5098.252     1.695655E-7
         5103.875     1.702762E-7
         5109.499     1.709873E-7
         5115.134     1.717000E-7
         5120.771     1.724131E-7
         5126.418     1.731277E-7
         5132.067     1.738416E-7
         5137.722     1.745546E-7
         5143.389     1.752710E-7
         5149.056     1.759889E-7
         5154.735     1.767086E-7
         5160.415     1.774286E-7
         5166.107     1.781501E-7
         5171.799     1.788719E-7
         5177.498     1.795949E-7
         5183.208     1.803178E-7
         5188.919     1.810395E-7
         5194.643     1.817654E-7
         5200.366     1.824919E-7
         5206.102     1.832175E-7
         5211.838     1.839442E-7
         5217.581     1.846739E-7
         5223.336     1.854036E-7
         5229.091     1.861323E-7
         5234.859     1.868627E-7
         5240.627     1.875933E-7
         5246.407     1.883255E-7
         5252.188     1.890592E-7
         5257.975     1.897961E-7
         5263.774     1.905303E-7
         5269.574     1.912623E-7
         5275.383     1.403195E-7
         5281.199     9.636837E-8
         5287.018     9.673762E-8
          5292.85     9.710688E-8
         5298.682     9.747536E-8
         5304.523     9.784453E-8
         5310.371     9.821431E-8
         5316.228     9.858634E-8
         5322.085     9.895729E-8
          5327.95     9.932643E-8
         5333.826     9.969757E-8
         5339.703     1.000694E-7
          5345.59     1.004419E-7
         5351.483     1.008145E-7
         5357.385     1.011864E-7
         5363.289     1.015583E-7
         5369.198     1.019308E-7
         5375.117     1.023024E-7
         5381.042     1.026744E-7
         5386.978     1.030487E-7
         5392.914     1.034221E-7
         5398.858     1.037951E-7
         5404.807     1.041684E-7
         5410.766     1.045425E-7
          5416.73     1.049169E-7
         5422.702     1.052911E-7
          5428.68     1.056645E-7
         5434.665     1.060384E-7
         5440.656     1.064128E-7
         5446.651     1.067874E-7
         5452.655     1.071617E-7
         5458.666     1.075354E-7
         5464.684     1.079095E-7
         5470.708     1.082839E-7
         5476.739     1.086568E-7
         5482.777     1.090302E-7
         5488.818     1.094038E-7
         5494.869     1.097781E-7
         5500.926     1.101486E-7
         5506.991     1.104962E-7
         5513.062     1.108440E-7
         5519.139     1.111919E-7
         5525.221     1.115400E-7
         5531.312     1.118880E-7
          5537.41     1.122345E-7
         5543.514     1.125800E-7
         5549.625     1.129248E-7
         5555.743     1.132717E-7
         5561.868     1.136183E-7
         5567.996     1.139633E-7
         5574.134     1.143087E-7
         5580.279     1.146543E-7
         5586.431     1.149979E-7
          5592.59     1.153416E-7
         5598.755     1.156855E-7
         5604.927     1.159071E-7
         5611.103     1.160978E-7
         5617.289     1.162886E-7
         5623.481     1.164783E-7
         5629.681     1.166672E-7
         5635.887     1.168559E-7
           5642.1     1.170446E-7
         5648.316     1.172334E-7
         5654.543     1.174222E-7
         5660.777     1.176111E-7
         5667.018     1.178000E-7
         5673.265     1.179878E-7
         5679.519     1.181744E-7
          5685.78     1.183612E-7
         5692.045     1.185478E-7
          5698.32     1.187345E-7
         5704.602     1.189212E-7
         5710.891     1.191080E-7
         5717.187     1.192948E-7
         5723.489     1.194814E-7
         5729.799     1.196681E-7
         5736.112     1.198548E-7
         5742.436     1.200406E-7
         5748.766     1.202250E-7
         5755.104     1.204111E-7
         5761.448     1.205978E-7
           5767.8     1.207845E-7
         5774.155     1.209695E-7
         5780.521     1.211539E-7
         5786.893     1.213404E-7
         5793.272     1.215257E-7
         5799.659     1.217098E-7
         5806.053     1.218962E-7
         5812.453     1.220817E-7
         5818.858     1.222655E-7
         5825.272     1.224514E-7
         5831.694     1.226370E-7
         5838.123     1.228209E-7
         5844.559     1.230064E-7
         5851.002     1.231923E-7
         5857.453     1.233758E-7
         5863.907     1.235607E-7
         5870.368     1.191967E-7
         5876.843     3.912826E-8
         5883.321              0.
         5889.807              0.
           5896.3              0.
           5902.8              0.
         5909.304              0.
         5915.819              0.
          5922.34              0.
         5928.869              0.
         5935.405              0.
         5941.945              0.
         5948.492              0.
         5955.053              0.
         5961.618              0.
          5968.19              0.
         5974.767              0.
         5981.356              0.
         5987.947              0.
         5994.548              0.
         6001.157              0.
         6007.769              0.
         6014.396              0.
         6021.022              0.
         6027.663              0.
         6034.308              0.
         6040.954              0.
         6047.617              0.
          6054.28              0.
         6060.958              0.
         6067.636              0.
         6074.329              0.
         6081.021              0.
         6087.722              0.
         6094.437              0.
         6101.152              0.
         6107.878              0.
         6114.611              0.
         6121.355              0.
           6128.1              0.
         6134.853              0.
         6141.616              0.
         6148.386              0.
         6155.167              0.
          6161.95              0.
         6168.746              0.
          6175.54              0.
         6182.348              0.
         6189.163              0.
         6195.986              0.
          6202.82              0.
         6209.655              0.
         6216.497              0.
          6223.35              0.
         6230.211              0.
         6237.083              0.
         6243.955              0.
         6250.838              0.
         6257.729              0.
         6264.624              0.
          6271.53              0.
         6278.444              0.
         6285.366              0.
         6292.294              0.
         6299.231              0.
         6306.176              0.
         6313.124              0.
         6320.084              0.
         6327.051              0.
         6334.026              0.
         6341.009              0.
         6347.999              0.
         6354.994              0.
            6362.              0.
         6369.013              0.
         6376.034              0.
         6383.063              0.
           6390.1              0.
         6397.145              0.
         6404.193              0.
         6411.253              0.
         6418.321              0.
         6425.397              0.
          6432.48              0.
         6439.571              0.
          6446.67              0.
         6453.774              0.
         6460.889              0.
         6468.011              0.
         6475.142              0.
          6482.28              0.
         6489.426              0.
         6496.576              0.
         6503.738              0.
         6510.908              0.
         6518.085              0.
         6525.271              0.
         6532.465              0.
         6539.666              0.
         6546.872              0.
         6554.089              0.
         6561.314              0.
         6568.548              0.
         6575.789              0.
         6583.038              0.
         6590.295              0.
         6597.557              0.
          6604.83              0.
         6612.111              0.
           6619.4              0.
         6626.698              0.
         6634.003              0.
         6641.316              0.
         6648.634              0.
         6655.964              0.
         6663.301              0.
         6670.647              0.
         6678.001              0.
         6685.363              0.
         6692.729              0.
         6700.107              0.
         6707.494              0.
         6714.888              0.
         6722.291              0.
         6729.701              0.
          6737.12              0.
         6744.543              0.
         6751.979              0.
         6759.422              0.
         6766.874              0.
         6774.333              0.
         6781.802              0.
         6789.278              0.
         6796.759              0.
         6804.251              0.
         6811.752              0.
         6819.262              0.
          6826.78              0.
         6834.306              0.
         6841.836              0.
         6849.378              0.
         6856.929              0.
         6864.488              0.
         6872.056              0.
         6879.632              0.
         6887.216              0.
         6894.805              0.
         6902.405              0.
         6910.015              0.
         6917.632              0.
         6925.258              0.
         6932.893              0.
         6940.536              0.
         6948.183              0.
         6955.839              0.
         6963.511              0.
         6971.188              0.
         6978.873              0.
         6986.566              0.
         6994.261              0.
         7001.975              0.
         7009.694              0.
         7017.422              0.
         7025.158              0.
         7032.902              0.
         7040.652              0.
          7048.41              0.
         7056.184              0.
         7063.962              0.
          7071.75              0.
         7079.542              0.
          7087.35              0.
          7095.16              0.
         7102.981              0.
         7110.812              0.
         7118.647              0.
         7126.499              0.
         7134.351              0.
          7142.22              0.
         7150.089              0.
         7157.968              0.
         7165.863              0.
         7173.758              0.
         7181.671              0.
         7189.584              0.
         7197.514              0.
         7205.444              0.
         7213.384              0.
          7221.34              0.
         7229.297              0.
         7237.271              0.
         7245.245              0.
         7253.236              0.
         7261.228              0.
         7269.229              0.
         7277.243              0.
         7285.265              0.
           7293.3              0.
         7301.336              0.
         7309.381              0.
         7317.439              0.
         7325.506              0.
         7333.586              0.
         7341.667              0.
         7349.764              0.
         7357.863              0.
          7365.97              0.
          7374.09              0.
         7382.219              0.
         7390.362              0.
         7398.505              0.
         7406.661              0.
         7414.826              0.
         7422.996              0.
         7431.184              0.
         7439.372              0.
         7447.573              0.
         7455.783              0.
         7464.002              0.
         7472.231              0.
         7480.464              0.
          7488.71              0.
         7496.966              0.
         7505.231              0.
         7513.505              0.
         7521.788              0.
         7530.076              0.
         7538.377              0.
         7546.688              0.
         7555.007              0.
         7563.335              0.
         7571.673              0.
         7580.021              0.
         7588.373              0.
         7596.738              0.
         7605.113              0.
         7613.497              0.
          7621.89              0.
         7630.292              0.
         7638.704              0.
         7647.121              0.
         7655.551              0.
         7663.991              0.
         7672.439              0.
         7680.897              0.
         7689.365              0.
         7697.838              0.
         7706.324              0.
         7714.819              0.
         7723.324              0.
         7731.838              0.
         7740.362              0.
         7748.895              0.
         7757.434              0.
         7765.985              0.
         7774.546              0.
         7783.117              0.
         7791.697              0.
         7800.287              0.
         7808.886              0.
          7817.49              0.
         7826.108              0.
         7834.736              0.
         7843.373              0.
          7852.02              0.
         7860.676              0.
         7869.337              0.
         7878.013              0.
         7886.697              0.
         7895.392              0.
         7904.096              0.
         7912.809              0.
         7921.532              0.
         7930.261              0.
         7939.003              0.
         7947.755              0.
         7956.517              0.
         7965.288              0.
         7974.069              0.
          7982.86              0.
         7991.656     5.312885E-9
         8000.466     3.195975E-8
         8009.286     3.207228E-8
         8018.115     3.218153E-8
         8026.954     3.228755E-8
         8035.803     3.239038E-8
         8044.658     3.248994E-8
         8053.526     3.258629E-8
         8062.404     3.267945E-8
         8071.292     3.276945E-8
          8080.19     3.285619E-8
         8089.098     3.293976E-8
         8098.016     3.302020E-8
         8106.938     3.298938E-8
         8115.875     3.292592E-8
         8124.822     3.286097E-8
         8133.779     3.279458E-8
         8142.746     3.272671E-8
         8151.723     3.265737E-8
         8160.709     3.258655E-8
         8169.701     3.251433E-8
         8178.708     3.244063E-8
         8187.724     3.236546E-8
          8196.75     3.228885E-8
         8205.786     3.236604E-8
         8214.832     3.252647E-8
         8223.884     3.268227E-8
          8232.95     3.283363E-8
         8242.026     3.298047E-8
         8251.112     3.312272E-8
         8260.208     3.326052E-8
         8269.314     3.339382E-8
         8278.431     3.352264E-8
         8287.552     3.364687E-8
         8296.688     3.376672E-8
         8305.835     3.385279E-8
         8314.991     3.391828E-8
         8324.153     3.397991E-8
         8333.334     3.403780E-8
         8342.521     3.409188E-8
         8351.713     3.417192E-8
          8360.92     3.437929E-8
         8370.138     3.458431E-8
         8379.365     3.478685E-8
         8388.603     3.498693E-8
          8397.85     3.518448E-8
         8407.104     3.538005E-8
         8416.371     3.557329E-8
         8425.649     3.576391E-8
         8434.934     3.595181E-8
         8444.236     3.613718E-8
         8453.546     3.631976E-8
         8462.865     3.649959E-8
         8472.189     3.667651E-8
         8481.525     3.685066E-8
          8490.88     3.702209E-8
          8500.24     3.718899E-8
         8509.611     3.729464E-8
         8518.987     3.739735E-8
         8528.384     3.749721E-8
          8537.78     3.759405E-8
         8547.188     3.768790E-8
         8556.615     3.777885E-8
         8566.043     3.786663E-8
         8575.486     3.795138E-8
          8584.94     3.803301E-8
         8594.409     3.811149E-8
         8603.879     3.810687E-8
         8613.359     3.798501E-8
         8622.854     3.786132E-8
          8632.36     3.773589E-8
         8641.882     3.760863E-8
         8651.403     3.747876E-8
         8660.937     3.734145E-8
         8670.484     3.720235E-8
         8680.043     3.706151E-8
         8689.611     3.691890E-8
         8699.191     3.677446E-8
         8708.781     3.654576E-8
         8718.382     3.630841E-8
         8727.988     3.607028E-8
          8737.61     3.583103E-8
         8747.242     3.559083E-8
         8756.886     3.534970E-8
         8766.539     3.510762E-8
         8776.203     3.486459E-8
         8785.879     3.462056E-8
          8795.56     3.437573E-8
         8805.256     3.427335E-8
         8814.963     3.428912E-8
         8824.681     3.430105E-8
         8834.408     3.430909E-8
         8844.147     3.431320E-8
         8853.893     3.431335E-8
         8863.653     3.430948E-8
         8873.425     3.430156E-8
         8883.207     3.428954E-8
            8893.     3.427341E-8
         8902.804     3.412273E-8
         8912.618     3.364594E-8
         8922.438     3.317090E-8
         8932.274     3.269719E-8
         8942.122     3.222499E-8
         8951.979     3.175333E-8
         8961.849     3.127891E-8
         8971.728     3.080639E-8
         8981.618     3.033573E-8
         8991.515     2.986721E-8
         9001.427     2.941912E-8
         9011.351     2.908319E-8
         9021.284     2.874750E-8
         9031.229     2.841201E-8
         9041.186     2.807674E-8
         9051.147     2.774192E-8
         9061.126     2.740713E-8
         9071.115     2.707261E-8
         9081.115     2.673836E-8
         9091.126     2.640443E-8
         9101.148     2.606243E-8
         9111.182     2.565684E-8
         9121.221     2.525301E-8
         9131.276     2.485053E-8
         9141.343     2.444965E-8
          9151.42     2.405044E-8
         9161.509     2.365285E-8
         9171.608     2.325696E-8
         9181.719     2.286283E-8
         9191.836     2.247060E-8
          9201.97     2.212609E-8
         9212.113     2.197201E-8
          9222.27     2.181510E-8
         9232.436     2.165532E-8
         9242.613     2.149267E-8
         9252.798     2.132626E-8
         9262.998     2.115442E-8
          9273.21     2.097966E-8
         9283.433     2.080204E-8
         9293.667     2.062147E-8
         9303.912     2.037820E-8
         9314.169     2.003775E-8
         9324.432     1.969822E-8
         9334.711     1.935927E-8
         9345.002     1.902108E-8
         9355.304     1.868369E-8
         9365.617     1.834709E-8
         9375.941     1.801134E-8
         9386.278     1.767638E-8
          9396.62     1.734249E-8
         9406.979     1.701004E-8
          9417.35     1.667885E-8
         9427.731     1.634851E-8
         9438.124     1.601909E-8
         9448.529     1.569053E-8
          9458.94     1.536307E-8
         9469.368     1.503641E-8
         9479.807     1.471071E-8
         9490.258     1.438597E-8
          9500.72     1.407275E-8
         9511.193     1.390178E-8
         9521.679     1.373004E-8
          9532.17     1.355762E-8
         9542.679     1.338432E-8
         9553.198     1.321029E-8
         9563.729     1.303550E-8
         9574.272     1.285996E-8
         9584.828     1.268365E-8
         9595.395     1.250661E-8
         9605.967     1.218152E-8
         9616.557     1.174841E-8
         9627.158     1.132324E-8
         9637.771     1.090607E-8
         9648.396     1.049681E-8
         9659.032     1.009549E-8
         9669.681     9.702097E-9
         9680.335     9.316862E-9
         9691.007     8.939320E-9
          9701.69     8.577803E-9
         9712.386     8.266094E-9
         9723.093     7.960315E-9
         9733.812     7.660461E-9
         9744.536     7.366684E-9
         9755.279     7.076665E-9
         9766.033     6.790773E-9
           9776.8     6.511045E-9
         9787.577     6.237512E-9
         9798.367     5.970104E-9
         9809.169     5.798491E-9
         9819.978     5.644311E-9
         9830.803     5.491060E-9
         9841.641     5.338802E-9
          9852.49     5.187553E-9
         9863.352     5.037315E-9
         9874.225     4.888090E-9
          9885.11     4.739870E-9
         9896.003     4.592734E-9
         9906.912     4.405149E-9
         9917.828     4.197966E-9
         9928.767     3.995558E-9
         9939.713     3.798175E-9
          9950.67     3.605764E-9
         9961.634     3.418360E-9
          9972.61     3.235858E-9
          9983.61     3.058063E-9
         9994.616     2.885249E-9
         10005.63     2.766562E-9
         10016.66     2.696668E-9
         10027.71     2.627355E-9
         10038.76     2.558765E-9
         10049.82     2.490816E-9
          10060.9     2.423458E-9
         10071.99     2.356819E-9
          10083.1     2.290762E-9
         10094.21     2.225430E-9
         10105.34     1.007242E-9
         10116.47              0.
         10127.62     3.898805E-9
         10138.79    5.992453E-10
         10149.96     4.790297E-9
         10161.16     8.772849E-9
         10172.35     3.445112E-9
         10183.56     3.105594E-9
         10194.79     6.401881E-9
         10206.03     6.515201E-9
         10217.29     2.128768E-9
         10228.54              0.
         10239.83     3.573283E-9
         10251.11     3.497330E-9
          10262.4     3.359301E-9
         10273.72     4.422052E-9
         10285.04     7.732229E-9
         10296.39     3.203108E-9
         10307.73              0.
          10319.1     7.348978E-9
         10330.47     4.884652E-9
         10341.85              0.
         10353.26    7.529831E-10
         10364.67     1.165487E-9
          10376.1              0.
         10387.53     2.925859E-9
         10398.99    3.684657E-10
         10410.45    2.287741E-10
         10421.92     3.851769E-9
         10433.41              0.
         10444.91    6.682310E-10
         10456.43     2.856827E-9
         10467.95    7.007175E-10
          10479.5              0.
         10491.04              0.
          10502.6    2.184196E-10
         10514.19     1.842021E-9
         10525.77     1.801333E-9
         10537.38     3.051958E-9
         10548.99     1.727344E-9
         10560.63     8.425471E-9
         10572.26     2.736609E-9
         10583.91              0.
         10595.59    3.719668E-10
         10607.26    6.452860E-10
         10618.96    6.250255E-10
         10630.66     1.250144E-9
         10642.38     2.451014E-9
         10654.11     2.664709E-9
         10665.85              0.
         10677.62              0.
         10689.38              0.
         10701.17     1.356638E-9
         10712.96    4.723786E-10
         10724.77    4.544855E-10
          10736.6    1.486710E-10
         10748.43     1.413947E-9
         10760.27     1.185477E-9
         10772.14    3.031307E-10
         10784.01    4.435522E-10
          10795.9     1.058091E-9
         10807.81    4.842268E-10
         10819.72    9.057546E-12
         10831.65    2.550111E-10
         10843.57              0.
         10855.53    1.523837E-10
         10867.51     1.630791E-9
         10879.48    8.027693E-10
         10891.48    8.945813E-10
         10903.48    5.792690E-10
          10915.5    2.972054E-10
         10927.52    3.359275E-10
         10939.58    1.863004E-10
         10951.64    4.435815E-10
         10963.71    2.676726E-10
         10975.79    2.607549E-10
         10987.88    1.297507E-10
           11000.    2.364391E-10
