#  Table wf4f160bwsys.tab  Mon 12:22:41 02-Jun-97

#      WAVELENGTH      THROUGHPUT
#       angstroms                

            1216.     4.130386E-4
          1217.34     4.205067E-4
         1218.682     4.280715E-4
         1220.026     4.357174E-4
         1221.371     4.421378E-4
         1222.717     4.486292E-4
         1224.065     4.552002E-4
         1225.414     4.618466E-4
         1226.765     4.685702E-4
         1228.117     4.753715E-4
         1229.471     4.822506E-4
         1230.826     4.884511E-4
         1232.183     4.942325E-4
         1233.542     5.000725E-4
         1234.901     5.059639E-4
         1236.262     5.119149E-4
         1237.625     5.179208E-4
         1238.989     5.239878E-4
         1240.355     5.298508E-4
         1241.722     5.350009E-4
         1243.091     5.401952E-4
         1244.461     5.454310E-4
         1245.833     5.507065E-4
         1247.207     5.560294E-4
         1248.582     5.613929E-4
         1249.957     5.667962E-4
         1251.335     5.714888E-4
         1252.715     5.761889E-4
         1254.095     5.809181E-4
         1255.478     5.856833E-4
         1256.862     5.904783E-4
         1258.247     5.953027E-4
         1259.634     6.001614E-4
         1261.023     6.045654E-4
         1262.413     6.088193E-4
         1263.805     6.130963E-4
         1265.198     6.173963E-4
         1266.592     6.217177E-4
         1267.989     6.260650E-4
         1269.387     6.304377E-4
         1270.786     6.345084E-4
         1272.187     6.383479E-4
         1273.588     6.422019E-4
         1274.992     6.460744E-4
         1276.399     6.499650E-4
         1277.805     6.538687E-4
         1279.214     6.577902E-4
         1280.624     6.615259E-4
         1282.035     6.650163E-4
         1283.449     6.685213E-4
         1284.864     6.720359E-4
          1286.28     6.755593E-4
         1287.698     6.790964E-4
         1289.117     6.826444E-4
         1290.538     6.860750E-4
         1291.961     6.893032E-4
         1293.385     6.925386E-4
         1294.811     6.957800E-4
         1296.238     6.990302E-4
         1297.668     7.022896E-4
         1299.098     7.055534E-4
          1300.53     7.083853E-4
         1301.963     7.104697E-4
         1303.398     7.125555E-4
         1304.835     7.146446E-4
         1306.274     7.167365E-4
         1307.713     7.188290E-4
         1309.155     7.209246E-4
         1310.597     7.229486E-4
         1312.042     7.248725E-4
         1313.489     7.267969E-4
         1314.937     7.287229E-4
         1316.386     7.306478E-4
         1317.837     7.325743E-4
          1319.29     7.345006E-4
         1320.744     7.363564E-4
           1322.2     7.381433E-4
         1323.657     7.399295E-4
         1325.117     7.417153E-4
         1326.578     7.435005E-4
         1328.039     7.452841E-4
         1329.503     7.470680E-4
         1330.969     7.487661E-4
         1332.436     7.504189E-4
         1333.905     7.520702E-4
         1335.376     7.537196E-4
         1336.847     7.553662E-4
         1338.321     7.570118E-4
         1339.796     7.586555E-4
         1341.273     7.602221E-4
         1342.752     7.617743E-4
         1344.232     7.633239E-4
         1345.713     7.648698E-4
         1347.197     7.664136E-4
         1348.682     7.679550E-4
         1350.169     7.694857E-4
         1351.657     7.709547E-4
         1353.146     7.724194E-4
         1354.638     7.738004E-4
         1356.131     7.750690E-4
         1357.627     7.763347E-4
         1359.123     7.775954E-4
         1360.621     7.788373E-4
         1362.121     7.800536E-4
         1363.622     7.812650E-4
         1365.126     7.824736E-4
          1366.63     7.836767E-4
         1368.137     7.848762E-4
         1369.645     7.860715E-4
         1371.155     7.872613E-4
         1372.667     7.884480E-4
          1374.18     7.896295E-4
         1375.694     7.908061E-4
         1377.211     7.919788E-4
         1378.729     7.931470E-4
         1380.249     7.943143E-4
         1381.771     7.954958E-4
         1383.294     7.966731E-4
         1384.818     7.978451E-4
         1386.345     7.990132E-4
         1387.874     8.001776E-4
         1389.403     8.013360E-4
         1390.935     8.025275E-4
         1392.468     8.037383E-4
         1394.002     8.049443E-4
          1395.54     8.061472E-4
         1397.078     8.073454E-4
         1398.618     8.085386E-4
          1400.16     8.095549E-4
         1401.703     8.090662E-4
         1403.248     8.085733E-4
         1404.795     8.080755E-4
         1406.343     8.075737E-4
         1407.894     8.070674E-4
         1409.446     8.065567E-4
         1410.999     8.060675E-4
         1412.555     8.055879E-4
         1414.112     8.051040E-4
          1415.67     8.046162E-4
         1417.231     8.041240E-4
         1418.793     8.036275E-4
         1420.357     8.031228E-4
         1421.923     8.026009E-4
         1423.491     8.020747E-4
         1425.059     8.015446E-4
          1426.63     8.010098E-4
         1428.203     8.004708E-4
         1429.777     7.999277E-4
         1431.354     7.993287E-4
         1432.932     7.987169E-4
          1434.51     7.981010E-4
         1436.092     7.974803E-4
         1437.676     7.968550E-4
          1439.26     7.962261E-4
         1440.847     7.955286E-4
         1442.435     7.947710E-4
         1444.024     7.940092E-4
         1445.617     7.932421E-4
          1447.21     7.924711E-4
         1448.805     7.916951E-4
         1450.402     7.908702E-4
         1452.001     7.899089E-4
         1453.602     7.889419E-4
         1455.205     7.879702E-4
         1456.808     7.869944E-4
         1458.414     7.860130E-4
         1460.022     7.850238E-4
         1461.631     7.838134E-4
         1463.243     7.825978E-4
         1464.856     7.813770E-4
          1466.47     7.801517E-4
         1468.086     7.789204E-4
         1469.706     7.776833E-4
         1471.325     7.762138E-4
         1472.947     7.746873E-4
         1474.571     7.731552E-4
         1476.196     7.716182E-4
         1477.824     7.700741E-4
         1479.453     7.685256E-4
         1481.083     7.667568E-4
         1482.716     7.648727E-4
          1484.35     7.629829E-4
         1485.987     7.610871E-4
         1487.625     7.597623E-4
         1489.264     7.593599E-4
         1490.906     7.587340E-4
         1492.549     7.579225E-4
         1494.195     7.570930E-4
         1495.842     7.562452E-4
         1497.491     7.553794E-4
         1499.142     7.544956E-4
         1500.794     7.524738E-4
         1502.449     7.492199E-4
         1504.105     7.459514E-4
         1505.763     7.426641E-4
         1507.423     7.393593E-4
         1509.084     7.360392E-4
         1510.748     7.325690E-4
         1512.414     7.289253E-4
          1514.08     7.252668E-4
         1515.749     7.215907E-4
         1517.419     7.179001E-4
         1519.093     7.141900E-4
         1520.768     7.103885E-4
         1522.444     7.064800E-4
         1524.122     7.025583E-4
         1525.802     6.986202E-4
         1527.484     6.946676E-4
         1529.168     6.907006E-4
         1530.854     6.866822E-4
          1532.54     6.826157E-4
          1534.23     6.785339E-4
         1535.921     6.744387E-4
         1537.615     6.703289E-4
          1539.31     6.662101E-4
         1541.006     6.620947E-4
         1542.705     6.579791E-4
         1544.405     6.538538E-4
         1546.109     6.486633E-4
         1547.812     6.429280E-4
         1549.518     6.372076E-4
         1551.227     6.315893E-4
         1552.936     6.260247E-4
         1554.648     6.204749E-4
         1556.363     6.149397E-4
         1558.078     6.094272E-4
         1559.795     6.039303E-4
         1561.515     5.986330E-4
         1563.235     5.933799E-4
         1564.958     5.881408E-4
         1566.685     5.829157E-4
         1568.411     5.777121E-4
          1570.14     5.725446E-4
         1571.871     5.676407E-4
         1573.603     5.627546E-4
         1575.338     5.578811E-4
         1577.075     5.530202E-4
         1578.813     5.481792E-4
         1580.553     5.434618E-4
         1582.295     5.389980E-4
         1584.039     5.345448E-4
         1585.785     5.301048E-4
         1587.534     5.256781E-4
         1589.284     5.212646E-4
         1591.036     5.171007E-4
          1592.79     5.131118E-4
         1594.545     5.091358E-4
         1596.303     5.051688E-4
         1598.062     5.012127E-4
         1599.824     4.972675E-4
         1601.588     4.929242E-4
         1603.353     4.885531E-4
          1605.12     4.841957E-4
          1606.89     4.798538E-4
         1608.661     4.755275E-4
         1610.434     4.713293E-4
          1612.21     4.674893E-4
         1613.986     4.636627E-4
         1615.765     4.598460E-4
         1617.548     4.560387E-4
          1619.33     4.522470E-4
         1621.115     4.487497E-4
         1622.902     4.454313E-4
          1624.69     4.421223E-4
         1626.482     4.388177E-4
         1628.275     4.355236E-4
         1630.069     4.322535E-4
         1631.867     4.294242E-4
         1633.665     4.266003E-4
         1635.466     4.237769E-4
         1637.269     4.209586E-4
         1639.074     4.181441E-4
          1640.88     4.155569E-4
         1642.689     4.132033E-4
           1644.5     4.108495E-4
         1646.313     4.084957E-4
         1648.128     4.061657E-4
         1649.944     4.041533E-4
         1651.763     4.025764E-4
         1653.585     4.010054E-4
         1655.407     3.994290E-4
         1657.232     3.978445E-4
         1659.058     3.962535E-4
         1660.888     3.948525E-4
         1662.719     3.936544E-4
         1664.552     3.924466E-4
         1666.386     3.912298E-4
         1668.223     3.900025E-4
         1670.062     3.887776E-4
         1671.903     3.878861E-4
         1673.746     3.869829E-4
          1675.59     3.860682E-4
         1677.437     3.851413E-4
         1679.287     3.842022E-4
         1681.139     3.834389E-4
         1682.991     3.827805E-4
         1684.847     3.821083E-4
         1686.704     3.814221E-4
         1688.563     3.807221E-4
         1690.425     3.800663E-4
         1692.287     3.795951E-4
         1694.153     3.791080E-4
         1696.021     3.786052E-4
          1697.89     3.780868E-4
         1699.762     3.775520E-4
         1701.636     3.776356E-4
         1703.512     3.777997E-4
         1705.389     3.779522E-4
         1707.269     3.780931E-4
         1709.151     3.782222E-4
         1711.035     3.784408E-4
         1712.922     3.787305E-4
         1714.809     3.790075E-4
         1716.699     3.792720E-4
         1718.592     3.795236E-4
         1720.485     3.797992E-4
         1722.383     3.801692E-4
         1724.281     3.805252E-4
         1726.182     3.808677E-4
         1728.086     3.811966E-4
          1729.99     3.815113E-4
         1731.897     3.819292E-4
         1733.806     3.823332E-4
         1735.718     3.827224E-4
          1737.63     3.830966E-4
         1739.546     3.834558E-4
         1741.463     3.838670E-4
         1743.383     3.842834E-4
         1745.305     3.846839E-4
         1747.228     3.850682E-4
         1749.154     3.854366E-4
         1751.084     3.854508E-4
         1753.013     3.851848E-4
         1754.946     3.849019E-4
          1756.88     3.846019E-4
         1758.817     3.842850E-4
         1760.756     3.839701E-4
         1762.697     3.836678E-4
         1764.639     3.833479E-4
         1766.585     3.830100E-4
         1768.532     3.826539E-4
         1770.482     3.822915E-4
         1772.434     3.819465E-4
         1774.387     3.815827E-4
         1776.343     3.812003E-4
         1778.301     3.807986E-4
         1780.262     3.803833E-4
         1782.224     3.799863E-4
         1784.189     3.795695E-4
         1786.156     3.791326E-4
         1788.124     3.786760E-4
         1790.096     3.782010E-4
         1792.068     3.777493E-4
         1794.044     3.772765E-4
         1796.022     3.767827E-4
         1798.001     3.762681E-4
         1799.984     3.757316E-4
         1801.968     3.735544E-4
         1803.954     3.713227E-4
         1805.942     3.690503E-4
         1807.933     3.667354E-4
         1809.926     3.643784E-4
         1811.922     3.620170E-4
         1813.919     3.596138E-4
         1815.918     3.571682E-4
          1817.92     3.546773E-4
         1819.925     3.521410E-4
          1821.93     3.495966E-4
         1823.938     3.470069E-4
         1825.948     3.443724E-4
         1827.962     3.416892E-4
         1829.976     3.389622E-4
         1831.995     3.362192E-4
         1834.013     3.334316E-4
         1836.035     3.305943E-4
         1838.059     3.277084E-4
         1840.084     3.247764E-4
         1842.113     3.218228E-4
         1844.144     3.188187E-4
         1846.177     3.157642E-4
         1848.212     3.126586E-4
         1850.248     3.095067E-4
         1852.288     3.063272E-4
          1854.33     3.030948E-4
         1856.375     2.998075E-4
         1858.421     2.964701E-4
         1860.469     2.930835E-4
          1862.52     2.896657E-4
         1864.573     2.861908E-4
         1866.628     2.826599E-4
         1868.686     2.790730E-4
         1870.746     2.754381E-4
         1872.808     2.717614E-4
         1874.872     2.680284E-4
         1876.939     2.642349E-4
         1879.008     2.603817E-4
         1881.079     2.562633E-4
         1883.153     2.521018E-4
         1885.229     2.478858E-4
         1887.307     2.436174E-4
         1889.387     2.392919E-4
         1891.471     2.349229E-4
         1893.555     2.305078E-4
         1895.643     2.260339E-4
         1897.732     2.215033E-4
         1899.823     2.169179E-4
         1901.919     2.149093E-4
         1904.014     2.131163E-4
         1906.113     2.112944E-4
         1908.215     2.094442E-4
         1910.317     2.075692E-4
         1912.424     2.056783E-4
         1914.532     2.037601E-4
         1916.643     2.018111E-4
         1918.755     1.998346E-4
          1920.87     1.978332E-4
         1922.988     1.958100E-4
         1925.107     1.937578E-4
          1927.23     1.916734E-4
         1929.354     1.895607E-4
         1931.481     1.874264E-4
          1933.61     1.852655E-4
          1935.74     1.830747E-4
         1937.875     1.808503E-4
         1940.011     1.785967E-4
         1942.149     1.763201E-4
          1944.29     1.740114E-4
         1946.434     1.716705E-4
          1948.58     1.692973E-4
         1950.728     1.668956E-4
         1952.878     1.644691E-4
          1955.03     1.620104E-4
         1957.185     1.595174E-4
         1959.343     1.569910E-4
         1961.503     1.544351E-4
         1963.665     1.518472E-4
         1965.829     1.492264E-4
         1967.996     1.465702E-4
         1970.167     1.438788E-4
         1972.339     1.411616E-4
         1974.512     1.384108E-4
         1976.689     1.356233E-4
         1978.868     1.328006E-4
         1981.049     1.299445E-4
         1983.233     1.270550E-4
         1985.418     1.241311E-4
         1987.607     1.211694E-4
         1989.798     1.181715E-4
         1991.992     1.147102E-4
         1994.188     1.111639E-4
         1996.386     1.075758E-4
         1998.586     1.039474E-4
         2000.789     1.009512E-4
         2002.996     9.913482E-5
         2005.203     9.729312E-5
         2007.414     9.542322E-5
         2009.627     9.352586E-5
         2011.841     9.099509E-5
          2014.06     8.830251E-5
         2016.279     8.557571E-5
         2018.502     8.281018E-5
         2020.727     8.008866E-5
         2022.955     7.749958E-5
         2025.185     7.487564E-5
         2027.417     7.221646E-5
         2029.652     6.952215E-5
         2031.889     6.722997E-5
         2034.129     6.498716E-5
         2036.371     6.271443E-5
         2038.616     6.041190E-5
         2040.864     5.828285E-5
         2043.112     5.645505E-5
         2045.365     5.460235E-5
         2047.621     5.272441E-5
         2049.877     5.082412E-5
         2052.137     4.967403E-5
         2054.399     4.855366E-5
         2056.664     4.741822E-5
         2058.931     4.626752E-5
         2061.201     4.465367E-5
         2063.472     4.261918E-5
         2065.747     4.055897E-5
         2068.024     3.847356E-5
         2070.304     3.640110E-5
         2072.586     3.455301E-5
         2074.871     3.268321E-5
         2077.157     3.079197E-5
         2079.447     2.887776E-5
          2081.74     2.761518E-5
         2084.034     2.655443E-5
         2086.332     2.548073E-5
         2088.632     2.439436E-5
         2090.933     2.304828E-5
          2093.24     2.131985E-5
         2095.546     1.957431E-5
         2097.856     1.780876E-5
         2100.169     1.606914E-5
         2102.483     1.489055E-5
         2104.802     1.369801E-5
         2107.121     1.249408E-5
         2109.444     1.127669E-5
         2111.769     1.017888E-5
         2114.097     9.111563E-6
         2116.428     8.033408E-6
          2118.76     6.944826E-6
         2121.097     6.118909E-6
         2123.434     5.597592E-6
         2125.775     5.070894E-6
         2128.118     4.539007E-6
         2130.463     4.046134E-6
         2132.813     3.727459E-6
         2135.163     3.406092E-6
         2137.518     3.081384E-6
         2139.875     2.754592E-6
         2142.231     2.547367E-6
         2144.594     2.344735E-6
         2146.958     2.140233E-6
         2149.325     1.933765E-6
         2151.693     1.780870E-6
         2154.065     1.648724E-6
          2156.44     1.515371E-6
         2158.817     1.380788E-6
         2161.197     1.269175E-6
         2163.578     1.180682E-6
         2165.964     1.091362E-6
         2168.353     1.001230E-6
         2170.743     9.199005E-7
         2173.135     8.591717E-7
         2175.529     7.979505E-7
         2177.929     7.361720E-7
         2180.329     6.767127E-7
         2182.733     6.341396E-7
         2185.138     5.912914E-7
         2187.547     5.481011E-7
         2189.959     5.045894E-7
         2192.372     4.740185E-7
         2194.789     4.434568E-7
         2197.208     4.126843E-7
         2199.632     3.816908E-7
         2202.056     3.604899E-7
         2204.482     3.406414E-7
         2206.912     3.203241E-7
         2209.345     2.995448E-7
         2211.782     2.831420E-7
         2214.219     2.681923E-7
          2216.66     2.529031E-7
         2219.104     2.372797E-7
         2221.549     2.243710E-7
         2223.998     2.129616E-7
         2226.449     2.013091E-7
         2228.904     1.894106E-7
         2231.361     1.792241E-7
          2233.82     1.704236E-7
         2236.284     1.614341E-7
         2238.748     1.522724E-7
         2241.217     1.442161E-7
         2243.687     1.373549E-7
         2246.159     1.303591E-7
         2248.636     1.232206E-7
         2251.114     1.168405E-7
         2253.597     1.114327E-7
          2256.08     1.059285E-7
         2258.567     1.003193E-7
         2261.057     9.524590E-8
         2263.548     9.095758E-8
         2266.045     8.658689E-8
         2268.542     8.214242E-8
         2271.042     7.809881E-8
         2273.546     7.466483E-8
         2276.051     7.117276E-8
         2278.562     6.761715E-8
         2281.072     6.438781E-8
         2283.588     6.162020E-8
         2286.104     5.880864E-8
         2288.623     5.595002E-8
         2291.147     5.336079E-8
         2293.672     5.111733E-8
         2296.202     4.883668E-8
         2298.732     4.653913E-8
         2301.266     4.447849E-8
         2303.803     4.266300E-8
         2306.342     4.081753E-8
         2308.885     3.893943E-8
         2311.431     3.727846E-8
         2313.979     3.578451E-8
          2316.53     3.426587E-8
         2319.082     3.272327E-8
         2321.639     3.138093E-8
         2324.198     3.014457E-8
          2326.76     2.888833E-8
         2329.325     2.761220E-8
         2331.892     2.652550E-8
         2334.463     2.549638E-8
         2337.038     2.445057E-8
         2339.613     2.338976E-8
         2342.193     2.250701E-8
         2344.774     2.164640E-8
         2347.357     2.077279E-8
         2349.947     1.988508E-8
         2352.536     1.916809E-8
         2355.131     1.844361E-8
         2357.726     1.770919E-8
         2360.326     1.698231E-8
         2362.927     1.637951E-8
         2365.531     1.576794E-8
          2368.14     1.514702E-8
         2370.749     1.455378E-8
         2373.364     1.404139E-8
         2375.979     1.352236E-8
         2378.598     1.299584E-8
          2381.22     1.251020E-8
         2383.844     1.207389E-8
         2386.473     1.163117E-8
         2389.103     1.118294E-8
         2391.737     1.078507E-8
         2394.373     1.041137E-8
         2397.012     1.003292E-8
         2399.656     9.649185E-9
           2402.3     9.323060E-9
         2404.949     9.001818E-9
           2407.6     8.676682E-9
         2410.252     8.353418E-9
          2412.91     8.079978E-9
          2415.57     7.803303E-9
         2418.233     7.523229E-9
         2420.898     7.256752E-9
         2423.567     7.020373E-9
         2426.238     6.781178E-9
         2428.913     6.539110E-9
         2431.591     6.319377E-9
         2434.271     6.114389E-9
         2436.954     5.907124E-9
         2439.641     5.697249E-9
         2442.331     5.516268E-9
         2445.022     5.338126E-9
         2447.718     5.157859E-9
         2450.416     4.980265E-9
         2453.117     4.826588E-9
         2455.822     4.671190E-9
         2458.528     4.514134E-9
         2461.239     4.367087E-9
         2463.951     4.232776E-9
         2466.669     4.096858E-9
         2469.387     3.959580E-9
         2472.108     3.838107E-9
         2474.834     3.720262E-9
         2477.561     3.601262E-9
         2480.294     3.482914E-9
         2483.027     3.380581E-9
         2485.764     3.277096E-9
         2488.504     3.172501E-9
         2491.246     3.074368E-9
         2493.994     2.984162E-9
         2496.742     2.893096E-9
         2499.494     2.801012E-9
          2502.25     2.719620E-9
         2505.007     2.640046E-9
          2507.77     2.559551E-9
         2510.533     2.480679E-9
         2513.302     2.410944E-9
         2516.072     2.340542E-9
         2518.844     2.269402E-9
         2521.622     2.203706E-9
         2524.401     2.141873E-9
         2527.185     2.079330E-9
         2529.969     2.016191E-9
         2532.759     1.961667E-9
         2535.551     1.906671E-9
         2538.344     1.849106E-9
         2541.144     1.792248E-9
         2543.946     1.739921E-9
          2546.75     1.687307E-9
         2549.558     1.634402E-9
         2552.367     1.587214E-9
          2555.18     1.540858E-9
         2557.997     1.494246E-9
         2560.817     1.449163E-9
         2563.639     1.408243E-9
         2566.465     1.367074E-9
         2569.294     1.325679E-9
         2572.128     1.288095E-9
         2574.962     1.251685E-9
           2577.8     1.215075E-9
         2580.643     1.179294E-9
         2583.486     1.147016E-9
         2586.336     1.114523E-9
         2589.186     1.081885E-9
         2592.039     1.052025E-9
         2594.897     1.023156E-9
         2597.757    9.941530E-10
         2600.622    9.657489E-10
         2603.487    9.400731E-10
         2606.357    9.142366E-10
         2609.231    8.882535E-10
         2612.106    8.644950E-10
         2614.985    8.414512E-10
          2617.87    8.182625E-10
         2620.754    7.957049E-10
         2623.643    7.751034E-10
         2626.536    7.543817E-10
         2629.431    7.335399E-10
         2632.328    7.146050E-10
         2635.232    6.960336E-10
         2638.135    6.773722E-10
         2641.045    6.593761E-10
         2643.955    6.427144E-10
          2646.87    6.259446E-10
         2649.788    6.090771E-10
         2652.708    5.939504E-10
         2655.633    5.788625E-10
          2658.56    5.636996E-10
          2661.49    5.493310E-10
         2664.424    5.357382E-10
          2667.36    5.220716E-10
         2670.302    5.084693E-10
         2673.244    4.961973E-10
         2676.193    4.838392E-10
         2679.142    4.714208E-10
         2682.094    4.599175E-10
         2685.052    4.487413E-10
         2688.012    4.375047E-10
         2690.975    4.266089E-10
          2693.94    4.164870E-10
          2696.91    4.063007E-10
         2699.883    3.960542E-10
         2702.858    3.875288E-10
         2705.839    3.789817E-10
         2708.822    3.703527E-10
         2711.807    3.622469E-10
         2714.796    3.544515E-10
         2717.789    3.465769E-10
         2720.785    3.388610E-10
         2723.785    3.317384E-10
         2726.788    3.245439E-10
         2729.792    3.172810E-10
         2732.802    3.107020E-10
         2735.814    3.041135E-10
          2738.83    2.974592E-10
         2741.849    2.911933E-10
         2744.872    2.851535E-10
         2747.898    2.790534E-10
         2750.926    2.728604E-10
         2753.958    2.665517E-10
         2756.994    2.602246E-10
         2760.034    2.538852E-10
         2763.076    2.481199E-10
         2766.121    2.423406E-10
         2769.172    2.365382E-10
         2772.223    2.311194E-10
         2775.281    2.258270E-10
         2778.339    2.205244E-10
           2781.4    2.154282E-10
         2784.468    2.105773E-10
         2787.536    2.057171E-10
          2790.61    2.009253E-10
         2793.685    1.964769E-10
         2796.765    1.920138E-10
         2799.848    1.875384E-10
         2802.933    1.834316E-10
         2806.025    1.793292E-10
         2809.117    1.752195E-10
         2812.213    1.713541E-10
         2815.314    1.675809E-10
         2818.417    1.637976E-10
         2821.524    1.601644E-10
         2824.633    1.566905E-10
         2827.749    1.532038E-10
         2830.865    1.497944E-10
         2833.985    1.465908E-10
         2837.109    1.433791E-10
         2840.236    1.401805E-10
         2843.368    1.372206E-10
         2846.501    1.342558E-10
         2849.641    1.312805E-10
         2852.781    1.285208E-10
         2855.924    1.257826E-10
         2859.074    1.230347E-10
         2862.226    1.204411E-10
         2865.381    1.179076E-10
          2868.54    1.153677E-10
         2871.701    1.129332E-10
         2874.866    1.105865E-10
         2878.036    1.082340E-10
         2881.208    1.059484E-10
         2884.385    1.037752E-10
         2887.563    1.015978E-10
         2890.748    9.945344E-11
         2893.935    9.743675E-11
         2897.123    9.541631E-11
         2900.317    9.338529E-11
         2903.515    9.131063E-11
         2906.715    8.923991E-11
          2909.92    8.717284E-11
         2913.126    8.525087E-11
         2916.338    8.333499E-11
         2919.552    8.142298E-11
         2922.773    7.962687E-11
         2925.993    7.785429E-11
         2929.217    7.608510E-11
         2932.448    7.440844E-11
         2935.679    7.276567E-11
         2938.916    7.112542E-11
         2942.155    6.956240E-11
         2945.399    6.803966E-11
         2948.646    6.651999E-11
         2951.895    6.506219E-11
         2955.151    6.364746E-11
         2958.407    6.223720E-11
         2961.668    6.087680E-11
         2964.933    5.956477E-11
           2968.2    5.825615E-11
         2971.474    5.698700E-11
         2974.748    5.576796E-11
         2978.027    5.455107E-11
          2981.31    5.336769E-11
         2984.595    5.223380E-11
         2987.887    5.110147E-11
         2991.179    4.999839E-11
         2994.477    4.894300E-11
         2997.778    4.789014E-11
         3001.083    4.686101E-11
         3004.391    4.587811E-11
         3007.702    4.489806E-11
         3011.019    4.393787E-11
         3014.337    4.302261E-11
         3017.658    4.210964E-11
         3020.987    4.121427E-11
         3024.317    4.036022E-11
         3027.651    3.950829E-11
         3030.987    3.867383E-11
         3034.328    3.787674E-11
         3037.673    3.708167E-11
         3041.022    3.630295E-11
         3044.375    3.555889E-11
         3047.731    3.481681E-11
         3051.089    3.409091E-11
         3054.454    3.339524E-11
          3057.82    3.270206E-11
         3061.191    3.202455E-11
         3064.565    3.137462E-11
         3067.944    3.072643E-11
         3071.326    3.009449E-11
          3074.71    2.948698E-11
           3078.1    2.888086E-11
         3081.495    2.829098E-11
          3084.89    2.772221E-11
         3088.292    2.715451E-11
         3091.696    2.660459E-11
         3095.102    2.607204E-11
         3098.516    2.554044E-11
          3101.93    2.508570E-11
         3105.351    2.468685E-11
         3108.773    2.428640E-11
           3112.2    2.390131E-11
         3115.631    2.352409E-11
         3119.064    2.314513E-11
         3122.504    2.278260E-11
         3125.945    2.242561E-11
         3129.391    2.206660E-11
         3132.841    2.172548E-11
         3136.294    2.138684E-11
         3139.752    2.104648E-11
         3143.211    2.072576E-11
         3146.678    2.040475E-11
         3150.145    2.008331E-11
         3153.618    1.978024E-11
         3157.095    1.947564E-11
         3160.573    1.917296E-11
         3164.059    1.888515E-11
         3167.546    1.859617E-11
         3171.039    1.831096E-11
         3174.533    1.803768E-11
         3178.031    1.776302E-11
         3181.536    1.749454E-11
         3185.044    1.723487E-11
         3188.555    1.697390E-11
         3192.068    1.672143E-11
         3195.587    1.647433E-11
          3199.11    1.622598E-11
         3202.637    1.598810E-11
         3206.167    1.575302E-11
           3209.7    1.551684E-11
         3213.239    1.529306E-11
         3216.781    1.506941E-11
         3220.327    1.484590E-11
         3223.877    1.463381E-11
         3227.431    1.442062E-11
         3230.989    1.421001E-11
         3234.549    1.400793E-11
         3238.115    1.380472E-11
         3241.685    1.360645E-11
         3245.259    1.341386E-11
         3248.836    1.322029E-11
         3252.418    1.303354E-11
         3256.003    1.284962E-11
         3259.591    1.266484E-11
         3263.186    1.248887E-11
         3266.781    1.231345E-11
         3270.383    1.213816E-11
         3273.988    1.197149E-11
         3277.596    1.180405E-11
         3281.209    1.163894E-11
         3284.826    1.147954E-11
         3288.449    1.131925E-11
         3292.073    1.116377E-11
           3295.7    1.101159E-11
         3299.335    1.085847E-11
          3302.97    1.071203E-11
         3306.614    1.056633E-11
         3310.257    1.042062E-11
         3313.906    1.028195E-11
         3317.559    1.014257E-11
         3321.215    1.000521E-11
         3324.878    9.872408E-12
         3328.542    9.739061E-12
         3332.211    9.609605E-12
         3335.885    9.482554E-12
          3339.56    9.354907E-12
         3343.244    9.232856E-12
         3346.927    9.111167E-12
         3350.619    8.989862E-12
         3354.311    8.873798E-12
         3358.007    8.757117E-12
          3361.71    8.642729E-12
         3365.415    8.531365E-12
         3369.126    8.419302E-12
         3372.839    8.311640E-12
         3376.557    8.204857E-12
         3380.279    8.097954E-12
         3384.004    7.996001E-12
         3387.736    7.893401E-12
         3391.469    7.792609E-12
         3395.208    7.694717E-12
         3398.953    7.596243E-12
         3402.698    7.501223E-12
         3406.449    7.407156E-12
         3410.204    7.312852E-12
         3413.964    7.222895E-12
         3417.727    7.132457E-12
         3421.493    7.043551E-12
         3425.265    6.957141E-12
         3429.043    6.870220E-12
         3432.821    6.786424E-12
         3436.606    6.703324E-12
         3440.394    6.620230E-12
         3444.185    6.540731E-12
         3447.984    6.460710E-12
         3451.783    6.382360E-12
         3455.588    6.305844E-12
         3459.398    6.228901E-12
         3463.211    6.154946E-12
         3467.029    6.081214E-12
          3470.85    6.007983E-12
         3474.678    5.937351E-12
         3478.506    5.866389E-12
         3482.339    5.797346E-12
          3486.18    5.729322E-12
         3490.023    5.660976E-12
         3493.871    5.595748E-12
          3497.72    5.530180E-12
         3501.576    5.465627E-12
         3505.437    5.402766E-12
         3509.301    5.339543E-12
          3513.17    5.278664E-12
         3517.041    5.218065E-12
         3520.918    5.157809E-12
         3524.799    5.099578E-12
         3528.685    5.041005E-12
         3532.575    4.984153E-12
         3536.468    4.928054E-12
         3540.368    4.871828E-12
         3544.269    4.817857E-12
         3548.176    4.763541E-12
         3552.088    4.710388E-12
         3556.004    4.658223E-12
         3559.924    4.605746E-12
         3563.846    4.555611E-12
         3567.777    4.505179E-12
         3571.708    4.455582E-12
         3575.644    4.407113E-12
         3579.588    4.358307E-12
         3583.534    4.311432E-12
         3587.484    4.264534E-12
         3591.439    4.218190E-12
         3595.396    4.173062E-12
          3599.36    4.127636E-12
         3603.328    4.083837E-12
         3607.301    4.040139E-12
         3611.277    3.996843E-12
         3615.256    3.954716E-12
         3619.242    3.912314E-12
         3623.234    3.871365E-12
         3627.226    3.830611E-12
         3631.223    3.790190E-12
         3635.228    3.750817E-12
         3639.237    3.711204E-12
         3643.247    3.672916E-12
         3647.261    3.634752E-12
         3651.284    3.596906E-12
         3655.307    3.560130E-12
         3659.335    3.523125E-12
         3663.371    3.487313E-12
         3667.408    3.451603E-12
         3671.453    3.416237E-12
         3675.498    3.381761E-12
         3679.552    3.347035E-12
         3683.606    3.313568E-12
         3687.665    3.280074E-12
         3691.732    3.247001E-12
           3695.8    3.214653E-12
         3699.876    3.182072E-12
         3703.953    3.150755E-12
         3708.039    3.119256E-12
         3712.124    3.088347E-12
         3716.215    3.057944E-12
         3720.313    3.027425E-12
         3724.413    2.998024E-12
         3728.521    2.968407E-12
         3732.629    2.939492E-12
         3736.746    2.910853E-12
         3740.863    2.882333E-12
         3744.985    2.854655E-12
         3749.116    2.826774E-12
         3753.247    2.799723E-12
         3757.386    2.772740E-12
         3761.526    2.746043E-12
         3765.675    2.719892E-12
         3769.824    2.693604E-12
         3773.978    2.668289E-12
         3778.141    2.642839E-12
         3782.304    2.617850E-12
         3786.473    2.593175E-12
         3790.648    2.568507E-12
         3794.824    2.544587E-12
          3799.01    2.520490E-12
         3803.196    2.497090E-12
         3807.389    2.473781E-12
         3811.586    2.450694E-12
          3815.79    2.428059E-12
         3819.994    2.405301E-12
         3824.203    2.383344E-12
         3828.419    2.361238E-12
          3832.64    2.339577E-12
         3836.865    2.318130E-12
         3841.095    2.296784E-12
         3845.331    2.275968E-12
         3849.568    2.255042E-12
          3853.81    2.234749E-12
         3858.058    2.214406E-12
         3862.312    2.194382E-12
         3866.572    2.174600E-12
         3870.832    2.154873E-12
         3875.099    2.135674E-12
         3879.369    2.116363E-12
         3883.646    2.097575E-12
         3887.927    2.078784E-12
         3892.213    2.060274E-12
         3896.504    2.042022E-12
           3900.8    2.023790E-12
           3905.1    2.006028E-12
         3909.403    1.988165E-12
         3913.712    1.970779E-12
         3918.027    1.953383E-12
         3922.346    1.936244E-12
          3926.67    1.919306E-12
         3930.999    1.902421E-12
         3935.333    1.885956E-12
         3939.669    1.869399E-12
         3944.012    1.853282E-12
          3948.36    1.837114E-12
         3952.712    1.821241E-12
          3957.07    1.805513E-12
         3961.432    1.789875E-12
         3965.799    1.774525E-12
         3970.169    1.759113E-12
         3974.546    1.744173E-12
         3978.927    1.729144E-12
         3983.314    1.714444E-12
         3987.705    1.699792E-12
         3992.101    1.685295E-12
           3996.5    1.670983E-12
         4000.906    1.655944E-12
         4005.316    1.638404E-12
         4009.732    1.620850E-12
         4014.152    1.603748E-12
         4018.577    1.586665E-12
         4023.008    1.569891E-12
          4027.44    1.553268E-12
          4031.88    1.536820E-12
         4036.325    1.520628E-12
         4040.775    1.504502E-12
         4045.229    1.488732E-12
         4049.689    1.472952E-12
         4054.153    1.457570E-12
          4058.62    1.442218E-12
         4063.094    1.427130E-12
         4067.574    1.412159E-12
         4072.058    1.397366E-12
         4076.547    1.382783E-12
         4081.041    1.368284E-12
         4085.538    1.354084E-12
         4090.042    1.339875E-12
         4094.548    1.326056E-12
         4099.064    1.312217E-12
         4103.583    1.298648E-12
         4108.107    1.285143E-12
         4112.636    1.271849E-12
         4117.165    1.258718E-12
         4121.706    1.245683E-12
          4126.25    1.232848E-12
         4130.799    1.220070E-12
         4135.353    1.207572E-12
         4139.911    1.195072E-12
         4144.473    1.182900E-12
          4149.04    1.170734E-12
         4153.616    1.158774E-12
         4158.195    1.146878E-12
         4162.779    1.135169E-12
         4167.366    1.123586E-12
         4171.962    1.112112E-12
         4176.559    1.100811E-12
         4181.163    1.089578E-12
         4185.772    1.078560E-12
         4190.385    1.067568E-12
         4195.006    1.056807E-12
         4199.629    1.046055E-12
         4204.261    1.037140E-12
         4208.894    1.028364E-12
         4213.531    1.019759E-12
         4218.178    1.011176E-12
         4222.826    1.002722E-12
         4227.484    9.943264E-13
         4232.142    9.860240E-13
          4236.81    9.778169E-13
         4241.478    9.696633E-13
         4246.151    9.616417E-13
         4250.835    9.536255E-13
         4255.519    9.457861E-13
         4260.212    9.379210E-13
         4264.907    9.302425E-13
         4269.606    9.225385E-13
         4274.315    9.150056E-13
         4279.025    9.074726E-13
         4283.744    9.000716E-13
         4288.464    8.926953E-13
         4293.194    8.854271E-13
         4297.925    8.782091E-13
         4302.661    8.710783E-13
         4307.406    8.640047E-13
         4312.152    8.570041E-13
         4316.909    8.500814E-13
         4321.665    8.432127E-13
         4326.432    8.364433E-13
         4331.199    8.297056E-13
         4335.971    8.230861E-13
         4340.753    8.164651E-13
         4345.537    8.099728E-13
          4350.33    8.034649E-13
         4355.123    7.971031E-13
         4359.926    7.907147E-13
          4364.73    7.844927E-13
          4369.54    7.782531E-13
         4374.359    7.721343E-13
         4379.179    7.660177E-13
         4384.009    7.600103E-13
          4388.84    7.540172E-13
          4393.68    7.481172E-13
         4398.521    7.422406E-13
         4403.368    7.364630E-13
         4408.225    7.307126E-13
         4413.082    7.250400E-13
          4417.95    7.193948E-13
         4422.817    7.138253E-13
         4427.696    7.082958E-13
         4432.574    7.028271E-13
         4437.458    6.974053E-13
         4442.353    6.920330E-13
         4447.248    6.867276E-13
         4452.153    6.814561E-13
         4457.059    6.762468E-13
          4461.97    6.710762E-13
         4466.891    6.659676E-13
         4471.813    6.608961E-13
         4476.745    6.558867E-13
         4481.678    6.509115E-13
         4486.618    6.460038E-13
         4491.564    6.411196E-13
         4496.514    6.363080E-13
         4501.473    6.322601E-13
         4506.433    6.300296E-13
         4511.401    6.277758E-13
         4516.375    6.255492E-13
         4521.355    6.233041E-13
         4526.337    6.211027E-13
         4531.325    6.188783E-13
          4536.32    6.166815E-13
         4541.321    6.144638E-13
         4546.328    6.122805E-13
         4551.339    6.100802E-13
         4556.357    6.079216E-13
          4561.38    6.057419E-13
         4566.406    6.035895E-13
          4571.44    6.014189E-13
         4576.479    5.992790E-13
         4581.527    5.971228E-13
         4586.575    5.949973E-13
         4591.632    5.928581E-13
         4596.691    5.907476E-13
         4601.758    5.886259E-13
         4606.832    5.865266E-13
          4611.91    5.844212E-13
         4616.994    5.823363E-13
         4622.084    5.802448E-13
          4627.18    5.781645E-13
         4632.278    5.760902E-13
         4637.385    5.740318E-13
         4642.497    5.719793E-13
         4647.615    5.699358E-13
         4652.738    5.679008E-13
         4657.868    5.658679E-13
         4663.002    5.638447E-13
         4668.141    5.618175E-13
         4673.287    5.598142E-13
         4678.438    5.578073E-13
         4683.596    5.558254E-13
         4688.759    5.538324E-13
         4693.928    5.518616E-13
           4699.1    5.498725E-13
         4704.281    5.479257E-13
         4709.467    5.459579E-13
         4714.658    5.440223E-13
         4719.856    5.420567E-13
         4725.059    5.401474E-13
         4730.268    5.382073E-13
          4735.48    5.363058E-13
         4740.701    5.343786E-13
         4745.927    5.324945E-13
         4751.159    5.305905E-13
         4756.396    5.287089E-13
          4761.64    5.268203E-13
         4766.889    5.249588E-13
         4772.142    5.230955E-13
         4777.402    5.212436E-13
         4782.669    5.193944E-13
         4787.941    5.175471E-13
          4793.22    5.157179E-13
         4798.504    5.138884E-13
         4803.791    5.120831E-13
         4809.087    5.102663E-13
         4814.389    5.084709E-13
         4819.696    5.066542E-13
         4825.009    5.048836E-13
         4830.328    5.030902E-13
         4835.653    5.013356E-13
         4840.981    4.995633E-13
         4846.318    4.978178E-13
         4851.661    4.960607E-13
         4857.009    4.943163E-13
         4862.364    4.925761E-13
         4867.724    4.908502E-13
          4873.09    4.891330E-13
         4878.457    4.874165E-13
         4883.838    4.857182E-13
         4889.222    4.840119E-13
         4894.612    4.823323E-13
         4900.008    4.806333E-13
         4905.409    4.789807E-13
         4910.814    4.773085E-13
         4916.228    4.756564E-13
         4921.648    4.739955E-13
         4927.074    4.723514E-13
         4932.505    4.707090E-13
          4937.94    4.690741E-13
         4943.386    4.674538E-13
         4948.833    4.658342E-13
         4954.289    4.642368E-13
          4959.75    4.626261E-13
         4965.216    4.610400E-13
         4970.692    4.594374E-13
         4976.169    4.578701E-13
         4981.658    4.562929E-13
         4987.146    4.547326E-13
         4992.642    4.531741E-13
         4998.148    4.516187E-13
         5003.656    4.503049E-13
         5009.174    4.490956E-13
         5014.694    4.479071E-13
         5020.219    4.467006E-13
         5025.756    4.455249E-13
         5031.294    4.443331E-13
         5036.843    4.431499E-13
         5042.394    4.419659E-13
         5047.955    4.407878E-13
         5053.517    4.396129E-13
         5059.085    4.384276E-13
         5064.665    4.372646E-13
         5070.246    4.360876E-13
         5075.838    4.349330E-13
         5081.431    4.337642E-13
         5087.036    4.326013E-13
         5092.641    4.314407E-13
         5098.252    4.302845E-13
         5103.875    4.291361E-13
         5109.499    4.279787E-13
         5115.134    4.268417E-13
         5120.771    4.256915E-13
         5126.418    4.245582E-13
         5132.067    4.234162E-13
         5137.722    4.222765E-13
         5143.389    4.211424E-13
         5149.056    4.200058E-13
         5154.735    4.188856E-13
         5160.415    4.177537E-13
         5166.107    4.166402E-13
         5171.799    4.155190E-13
         5177.498    4.144062E-13
         5183.208    4.132903E-13
         5188.919    4.121687E-13
         5194.643    4.110647E-13
         5200.366    4.099511E-13
         5206.102    4.088532E-13
         5211.838    4.077491E-13
         5217.581    4.066552E-13
         5223.336    4.055596E-13
         5229.091    4.044590E-13
         5234.859    4.033714E-13
         5240.627    4.022743E-13
         5246.407    4.011935E-13
         5252.188    4.001107E-13
         5257.975    3.990369E-13
         5263.774    3.979588E-13
         5269.574    3.968704E-13
         5275.383    3.958045E-13
         5281.199    3.947298E-13
         5287.018    3.936688E-13
          5292.85    3.926023E-13
         5298.682    3.915335E-13
         5304.523    3.904746E-13
         5310.371    3.894073E-13
         5316.228    3.883634E-13
         5322.085    3.873092E-13
          5327.95    3.862515E-13
         5333.826    3.852030E-13
         5339.703    3.841519E-13
          5345.59    3.831180E-13
         5351.483    3.820740E-13
         5357.385    3.810323E-13
         5363.289    3.799942E-13
         5369.198    3.789544E-13
         5375.117    3.779215E-13
         5381.042    3.768818E-13
         5386.978    3.758591E-13
         5392.914    3.748325E-13
         5398.858    3.738013E-13
         5404.807    3.727830E-13
         5410.766    3.717579E-13
          5416.73    3.707449E-13
         5422.702    3.697269E-13
          5428.68    3.687070E-13
         5434.665    3.676971E-13
         5440.656    3.666808E-13
         5446.651    3.656776E-13
         5452.655    3.646693E-13
         5458.666    3.636601E-13
         5464.684    3.626589E-13
         5470.708    3.616511E-13
         5476.739    3.606500E-13
         5482.777    3.596473E-13
         5488.818    3.586462E-13
         5494.869    3.576546E-13
         5500.926    3.566442E-13
         5506.991    3.555701E-13
         5513.062    3.544963E-13
         5519.139    3.534222E-13
         5525.221    3.523612E-13
         5531.312    3.512942E-13
          5537.41    3.502303E-13
         5543.514    3.491657E-13
         5549.625    3.480969E-13
         5555.743    3.470469E-13
         5561.868    3.459913E-13
         5567.996    3.449372E-13
         5574.134    3.438897E-13
         5580.279    3.428391E-13
         5586.431    3.417938E-13
          5592.59    3.407459E-13
         5598.755    3.397004E-13
         5604.927    3.383181E-13
         5611.103    3.368508E-13
         5617.289    3.353975E-13
         5623.481    3.339470E-13
         5629.681    3.324967E-13
         5635.887    3.310629E-13
           5642.1    3.296317E-13
         5648.316    3.282119E-13
         5654.543    3.268012E-13
         5660.777    3.253924E-13
         5667.018    3.239981E-13
         5673.265    3.226067E-13
         5679.519    3.212170E-13
          5685.78    3.198424E-13
         5692.045    3.184709E-13
          5698.32    3.171083E-13
         5704.602    3.157558E-13
         5710.891    3.144052E-13
         5717.187    3.130675E-13
         5723.489    3.117357E-13
         5729.799    3.104073E-13
         5736.112    3.090939E-13
         5742.436    3.077801E-13
         5748.766    3.064702E-13
         5755.104    3.051762E-13
         5761.448    3.038858E-13
           5767.8    3.026068E-13
         5774.155    3.013314E-13
         5780.521    3.000559E-13
         5786.893    2.988005E-13
         5793.272    2.975448E-13
         5799.659    2.962885E-13
         5806.053    2.950536E-13
         5812.453    2.938187E-13
         5818.858    2.925862E-13
         5825.272    2.913704E-13
         5831.694    2.901562E-13
         5838.123    2.889456E-13
         5844.559    2.877470E-13
         5851.002    2.865514E-13
         5857.453    2.853615E-13
         5863.907    2.841811E-13
         5870.368    2.830054E-13
         5876.843    2.818413E-13
         5883.321    2.806810E-13
         5889.807    2.795235E-13
           5896.3    2.783801E-13
           5902.8    2.772387E-13
         5909.304    2.761017E-13
         5915.819    2.749770E-13
          5922.34    2.738548E-13
         5928.869    2.727376E-13
         5935.405    2.716321E-13
         5941.945    2.705305E-13
         5948.492    2.694364E-13
         5955.053    2.683478E-13
         5961.618    2.672631E-13
          5968.19    2.661905E-13
         5974.767    2.651212E-13
         5981.356    2.640530E-13
         5987.947    2.629982E-13
         5994.548    2.619482E-13
         6001.157    2.608396E-13
         6007.769    2.594548E-13
         6014.396    2.580817E-13
         6021.022    2.567179E-13
         6027.663    2.553634E-13
         6034.308    2.540182E-13
         6040.954    2.526806E-13
         6047.617    2.513535E-13
          6054.28    2.500384E-13
         6060.958    2.487286E-13
         6067.636    2.474266E-13
         6074.329    2.461357E-13
         6081.021    2.448541E-13
         6087.722    2.435821E-13
         6094.437    2.423170E-13
         6101.152    2.410589E-13
         6107.878    2.398108E-13
         6114.611    2.385711E-13
         6121.355    2.373364E-13
           6128.1    2.361116E-13
         6134.853    2.348958E-13
         6141.616    2.336863E-13
         6148.386    2.324898E-13
         6155.167    2.312971E-13
          6161.95    2.301096E-13
         6168.746    2.289286E-13
          6175.54    2.277604E-13
         6182.348    2.265959E-13
         6189.163    2.254368E-13
         6195.986    2.242888E-13
          6202.82    2.231458E-13
         6209.655    2.220103E-13
         6216.497    2.208805E-13
          6223.35    2.197573E-13
         6230.211    2.186413E-13
         6237.083    2.175307E-13
         6243.955    2.164295E-13
         6250.838    2.153344E-13
         6257.729    2.142449E-13
         6264.624    2.131598E-13
          6271.53    2.120787E-13
         6278.444    2.110084E-13
         6285.366    2.099425E-13
         6292.294    2.088810E-13
         6299.231    2.078262E-13
         6306.176    2.067794E-13
         6313.124    2.057362E-13
         6320.084    2.046952E-13
         6327.051    2.036645E-13
         6334.026    2.026386E-13
         6341.009    2.016166E-13
         6347.999    2.005998E-13
         6354.994    1.995900E-13
            6362.    1.985832E-13
         6369.013    1.975798E-13
         6376.034    1.965845E-13
         6383.063    1.955936E-13
           6390.1    1.946070E-13
         6397.145    1.936258E-13
         6404.193    1.926478E-13
         6411.253    1.916726E-13
         6418.321    1.907045E-13
         6425.397    1.897404E-13
          6432.48    1.887799E-13
         6439.571    1.878238E-13
          6446.67    1.868732E-13
         6453.774    1.859272E-13
         6460.889    1.849841E-13
         6468.011    1.840416E-13
         6475.142    1.831053E-13
          6482.28    1.821740E-13
         6489.426    1.812483E-13
         6496.576    1.803224E-13
         6503.738    1.792348E-13
         6510.908    1.780026E-13
         6518.085    1.767781E-13
         6525.271    1.755588E-13
         6532.465    1.743445E-13
         6539.666    1.731360E-13
         6546.872    1.719402E-13
         6554.089    1.707483E-13
         6561.314    1.695618E-13
         6568.548    1.683860E-13
         6575.789    1.672130E-13
         6583.038    1.660477E-13
         6590.295    1.648921E-13
         6597.557    1.637438E-13
          6604.83    1.626000E-13
         6612.111    1.614611E-13
           6619.4    1.603276E-13
         6626.698    1.592082E-13
         6634.003    1.580919E-13
         6641.316    1.569800E-13
         6648.634    1.558814E-13
         6655.964    1.547844E-13
         6663.301    1.536948E-13
         6670.647    1.526142E-13
         6678.001    1.515400E-13
         6685.363    1.504731E-13
         6692.729    1.494122E-13
         6700.107    1.483553E-13
         6707.494    1.473084E-13
         6714.888    1.462685E-13
         6722.291    1.452355E-13
         6729.701    1.442103E-13
          6737.12    1.431903E-13
         6744.543    1.421774E-13
         6751.979    1.411709E-13
         6759.422    1.401716E-13
         6766.874    1.391779E-13
         6774.333    1.381921E-13
         6781.802    1.372132E-13
         6789.278    1.362394E-13
         6796.759    1.352745E-13
         6804.251    1.343154E-13
         6811.752    1.333625E-13
         6819.262    1.324164E-13
          6826.78    1.314786E-13
         6834.306    1.305469E-13
         6841.836    1.296218E-13
         6849.378    1.287031E-13
         6856.929    1.277915E-13
         6864.488    1.268844E-13
         6872.056    1.259832E-13
         6879.632    1.250908E-13
         6887.216    1.242056E-13
         6894.805    1.233265E-13
         6902.405    1.224522E-13
         6910.015    1.215819E-13
         6917.632    1.207220E-13
         6925.258    1.198679E-13
         6932.893    1.190206E-13
         6940.536    1.181804E-13
         6948.183    1.173453E-13
         6955.839    1.165156E-13
         6963.511    1.156920E-13
         6971.188    1.148762E-13
         6978.873    1.140666E-13
         6986.566    1.132633E-13
         6994.261    1.124660E-13
         7001.975    1.116378E-13
         7009.694    1.107153E-13
         7017.422    1.097988E-13
         7025.158    1.088907E-13
         7032.902    1.079914E-13
         7040.652    1.071011E-13
          7048.41    1.062159E-13
         7056.184    1.053392E-13
         7063.962    1.044703E-13
          7071.75    1.036081E-13
         7079.542    1.027530E-13
          7087.35    1.019047E-13
          7095.16    1.010654E-13
         7102.981    1.002329E-13
         7110.812    9.940630E-14
         7118.647    9.858727E-14
         7126.499    9.777456E-14
         7134.351    9.697002E-14
          7142.22    9.617104E-14
         7150.089    9.537766E-14
         7157.968    9.459310E-14
         7165.863    9.381424E-14
         7173.758    9.304319E-14
         7181.671    9.227771E-14
         7189.584    9.151721E-14
         7197.514    9.076492E-14
         7205.444    9.001913E-14
         7213.384    8.927884E-14
          7221.34    8.854375E-14
         7229.297    8.781761E-14
         7237.271    8.709462E-14
         7245.245    8.637898E-14
         7253.236    8.566876E-14
         7261.228    8.496467E-14
         7269.229    8.426630E-14
         7277.243    8.357528E-14
         7285.265    8.288857E-14
           7293.3    8.220682E-14
         7301.336    8.153190E-14
         7309.381    8.086261E-14
         7317.439    8.020024E-14
         7325.506    7.954166E-14
         7333.586    7.888803E-14
         7341.667    7.824119E-14
         7349.764    7.759874E-14
         7357.863    7.696217E-14
          7365.97    7.633200E-14
          7374.09    7.570581E-14
         7382.219    7.508395E-14
         7390.362    7.446781E-14
         7398.505    7.385782E-14
         7406.661    7.325338E-14
         7414.826    7.265290E-14
         7422.996    7.205724E-14
         7431.184    7.146677E-14
         7439.372    7.088319E-14
         7447.573    7.030251E-14
         7455.783    6.972729E-14
         7464.002    6.915687E-14
         7472.231    6.859078E-14
         7480.464    6.802951E-14
          7488.71    6.747232E-14
         7496.966    6.692104E-14
         7505.231    6.637495E-14
         7513.505    6.583323E-14
         7521.788    6.529545E-14
         7530.076    6.476181E-14
         7538.377    6.423230E-14
         7546.688    6.370661E-14
         7555.007    6.318471E-14
         7563.335    6.266658E-14
         7571.673    6.215221E-14
         7580.021    6.164166E-14
         7588.373    6.113559E-14
         7596.738    6.063276E-14
         7605.113    6.013359E-14
         7613.497    5.963813E-14
          7621.89    5.914634E-14
         7630.292    5.865810E-14
         7638.704    5.817382E-14
         7647.121    5.769321E-14
         7655.551    5.721587E-14
         7663.991    5.674208E-14
         7672.439    5.627178E-14
         7680.897    5.580497E-14
         7689.365    5.534178E-14
         7697.838    5.488236E-14
         7706.324    5.442606E-14
         7714.819    5.397318E-14
         7723.324    5.352366E-14
         7731.838    5.307732E-14
         7740.362    5.263427E-14
         7748.895    5.219493E-14
         7757.434    5.175897E-14
         7765.985    5.132610E-14
         7774.546    5.089639E-14
         7783.117    5.046987E-14
         7791.697    5.004657E-14
         7800.287    4.962631E-14
         7808.886    4.920951E-14
          7817.49    4.879605E-14
         7826.108    4.838549E-14
         7834.736    4.797795E-14
         7843.373    4.757350E-14
          7852.02    4.717212E-14
         7860.676    4.677364E-14
         7869.337    4.637851E-14
         7878.013    4.598636E-14
         7886.697    4.559725E-14
         7895.392    4.521095E-14
         7904.096    4.482757E-14
         7912.809    4.444719E-14
         7921.532    4.406967E-14
         7930.261    4.369512E-14
         7939.003    4.332350E-14
         7947.755    4.295463E-14
         7956.517    4.258880E-14
         7965.288    4.222564E-14
         7974.069    4.186523E-14
          7982.86    4.150766E-14
         7991.656    4.115306E-14
         8000.466    4.079689E-14
         8009.286    4.037087E-14
         8018.115    3.994828E-14
         8026.954    3.952905E-14
         8035.803    3.911311E-14
         8044.658    3.870066E-14
         8053.526    3.829135E-14
         8062.404    3.788528E-14
         8071.292    3.748231E-14
          8080.19    3.708257E-14
         8089.098    3.668633E-14
         8098.016    3.629319E-14
         8106.938    3.590346E-14
         8115.875    3.551666E-14
         8124.822    3.513290E-14
         8133.779    3.475225E-14
         8142.746    3.437471E-14
         8151.723    3.400008E-14
         8160.709    3.362861E-14
         8169.701    3.326015E-14
         8178.708    3.289474E-14
         8187.724    3.253227E-14
          8196.75    3.217269E-14
         8205.786    3.181606E-14
         8214.832    3.146225E-14
         8223.884    3.111142E-14
          8232.95    3.076332E-14
         8242.026    3.041812E-14
         8251.112    3.007573E-14
         8260.208    2.973608E-14
         8269.314    2.939931E-14
         8278.431    2.906521E-14
         8287.552    2.873411E-14
         8296.688    2.840547E-14
         8305.835    2.807955E-14
         8314.991    2.775632E-14
         8324.153    2.743586E-14
         8333.334    2.711778E-14
         8342.521    2.680246E-14
         8351.713    2.651301E-14
          8360.92    2.632580E-14
         8370.138    2.613879E-14
         8379.365    2.595237E-14
         8388.603    2.576637E-14
          8397.85    2.558068E-14
         8407.104    2.539549E-14
         8416.371    2.521057E-14
         8425.649    2.502605E-14
         8434.934    2.484199E-14
         8444.236    2.465813E-14
         8453.546    2.447466E-14
         8462.865    2.429153E-14
         8472.189    2.410896E-14
         8481.525    2.392668E-14
          8490.88    2.374472E-14
          8500.24    2.356295E-14
         8509.611    2.337640E-14
         8518.987    2.319029E-14
         8528.384    2.300438E-14
          8537.78    2.281900E-14
         8547.188    2.263397E-14
         8556.615    2.244907E-14
         8566.043    2.226476E-14
         8575.486    2.208071E-14
          8584.94    2.189695E-14
         8594.409    2.171348E-14
         8603.879    2.153059E-14
         8613.359    2.134800E-14
         8622.854    2.116564E-14
          8632.36    2.098360E-14
         8641.882    2.080181E-14
         8651.403    2.062002E-14
         8660.937    2.043547E-14
         8670.484    2.025134E-14
         8680.043    2.006747E-14
         8689.611    1.988410E-14
         8699.191    1.970106E-14
         8708.781    1.951840E-14
         8718.382    1.933619E-14
         8727.988    1.915441E-14
          8737.61    1.897296E-14
         8747.242    1.879191E-14
         8756.886    1.861111E-14
         8766.539    1.843082E-14
         8776.203    1.825091E-14
         8785.879    1.807131E-14
          8795.56    1.789213E-14
         8805.256    1.771330E-14
         8814.963    1.753490E-14
         8824.681    1.735677E-14
         8834.408    1.717900E-14
         8844.147    1.700160E-14
         8853.893    1.682465E-14
         8863.653    1.664798E-14
         8873.425    1.647161E-14
         8883.207    1.629560E-14
            8893.    1.611995E-14
         8902.804    1.594466E-14
         8912.618    1.576975E-14
         8922.438    1.559520E-14
         8932.274    1.542094E-14
         8942.122    1.524701E-14
         8951.979    1.507285E-14
         8961.849    1.489702E-14
         8971.728    1.472156E-14
         8981.618    1.454653E-14
         8991.515    1.437192E-14
         9001.427    1.419901E-14
         9011.351    1.403475E-14
         9021.284    1.387100E-14
         9031.229    1.370754E-14
         9041.186    1.354444E-14
         9051.147    1.338174E-14
         9061.126    1.321940E-14
         9071.115    1.305739E-14
         9081.115    1.289564E-14
         9091.126    1.273433E-14
         9101.148    1.257340E-14
         9111.182    1.241281E-14
         9121.221    1.225257E-14
         9131.276    1.209264E-14
         9141.343    1.193301E-14
          9151.42    1.177374E-14
         9161.509    1.161483E-14
         9171.608    1.145619E-14
         9181.719    1.129797E-14
         9191.836    1.114006E-14
          9201.97    1.098246E-14
         9212.113    1.082522E-14
          9222.27    1.066817E-14
         9232.436    1.051157E-14
         9242.613    1.035526E-14
         9252.798    1.019886E-14
         9262.998    1.004157E-14
          9273.21    9.884669E-15
         9283.433    9.728088E-15
         9293.667    9.571890E-15
         9303.912    9.416083E-15
         9314.169    9.260587E-15
         9324.432    9.105517E-15
         9334.711    8.950764E-15
         9345.002    8.796329E-15
         9355.304    8.642244E-15
         9365.617    8.488524E-15
         9375.941    8.335150E-15
         9386.278    8.182118E-15
          9396.62    8.029462E-15
         9406.979    7.877071E-15
          9417.35    7.725054E-15
         9427.731    7.573387E-15
         9438.124    7.422005E-15
         9448.529    7.270966E-15
          9458.94    7.120324E-15
         9469.368    6.969937E-15
         9479.807    6.819916E-15
         9490.258    6.670135E-15
          9500.72    6.522656E-15
         9511.193    6.401061E-15
         9521.679    6.280501E-15
          9532.17    6.160903E-15
         9542.679    6.042189E-15
         9553.198    5.924433E-15
         9563.729    5.807600E-15
         9574.272    5.691701E-15
         9584.828    5.576718E-15
         9595.395    5.462668E-15
         9605.967    5.349599E-15
         9616.557    5.237409E-15
         9627.158    5.126091E-15
         9637.771    5.015709E-15
         9648.396    4.906196E-15
         9659.032    4.797595E-15
         9669.681    4.689875E-15
         9680.335    4.583113E-15
         9691.007    4.477148E-15
          9701.69    4.372121E-15
         9712.386    4.267923E-15
         9723.093    4.164615E-15
         9733.812    4.062179E-15
         9744.536    3.960660E-15
         9755.279    3.858868E-15
         9766.033    3.756923E-15
           9776.8    3.655921E-15
         9787.577    3.555861E-15
         9798.367    3.456751E-15
         9809.169    3.358550E-15
         9819.978    3.261364E-15
         9830.803    3.165045E-15
         9841.641    3.069645E-15
          9852.49    2.975165E-15
         9863.352    2.881620E-15
         9874.225    2.788975E-15
          9885.11    2.697241E-15
         9896.003    2.606445E-15
         9906.912    2.516507E-15
         9917.828    2.427499E-15
         9928.767    2.339317E-15
         9939.713    2.252056E-15
          9950.67    2.165677E-15
         9961.634    2.080233E-15
          9972.61    1.995654E-15
          9983.61    1.911879E-15
         9994.616    1.831627E-15
         10005.63    1.771777E-15
         10016.66    1.727860E-15
         10027.71    1.684265E-15
         10038.76    1.641078E-15
         10049.82    1.598253E-15
          10060.9    1.555756E-15
         10071.99    1.513667E-15
          10083.1    1.471904E-15
         10094.21    1.430556E-15
         10105.34    1.389541E-15
         10116.47    1.348939E-15
         10127.62    1.308709E-15
         10138.79    1.268820E-15
         10149.96    1.229346E-15
         10161.16    1.190216E-15
         10172.35    1.151504E-15
         10183.56    1.113172E-15
         10194.79    1.075190E-15
         10206.03    1.037629E-15
         10217.29    1.000417E-15
         10228.54    9.636320E-16
         10239.83    9.271975E-16
         10251.11    8.911952E-16
          10262.4    8.555809E-16
         10273.72    8.203299E-16
         10285.04    7.855073E-16
         10296.39    7.510488E-16
         10307.73    7.170207E-16
          10319.1    6.833603E-16
         10330.47    6.501363E-16
         10341.85    6.173147E-16
         10353.26    5.848670E-16
         10364.67    5.528558E-16
          10376.1    5.212223E-16
         10387.53    4.900302E-16
         10398.99    4.592176E-16
         10410.45    4.288485E-16
         10421.92    3.988904E-16
         10433.41    3.693227E-16
         10444.91    3.401997E-16
         10456.43    3.114662E-16
         10467.95    2.831820E-16
          10479.5    2.552914E-16
         10491.04    2.278526E-16
          10502.6    2.056194E-16
         10514.19    2.000392E-16
         10525.77    1.945263E-16
         10537.38    1.890703E-16
         10548.99    1.836816E-16
         10560.63    1.783508E-16
         10572.26    1.730876E-16
         10583.91    1.678879E-16
         10595.59    1.627461E-16
         10607.26    1.576731E-16
         10618.96    1.526588E-16
         10630.66    1.477134E-16
         10642.38    1.428326E-16
         10654.11    1.380112E-16
         10665.85    1.332595E-16
         10677.62    1.285677E-16
         10689.38    1.239464E-16
         10701.17    1.193858E-16
         10712.96    1.148955E-16
         10724.77    1.104710E-16
          10736.6    1.061085E-16
         10748.43    1.018168E-16
         10760.27    9.759192E-17
         10772.14    9.342974E-17
         10784.01    8.933901E-17
          10795.9    8.531159E-17
         10807.81    8.135211E-17
         10819.72    7.746429E-17
         10831.65    7.364116E-17
         10843.57    6.989398E-17
         10855.53    6.620807E-17
         10867.51    6.259110E-17
         10879.48    5.904707E-17
         10891.48    5.556931E-17
         10903.48    5.216454E-17
          10915.5    4.882963E-17
         10927.52    4.556511E-17
         10939.58    4.236815E-17
         10951.64    3.924175E-17
         10963.71    3.618961E-17
         10975.79    3.320889E-17
         10987.88    3.029963E-17
           11000.    2.746004E-17
