#  Table wf4f450wsys.tab  Mon 12:22:46 02-Jun-97

#      WAVELENGTH      THROUGHPUT
#       angstroms                

            1860.     4.435235E-8
         1861.655     3.963593E-8
         1863.309     3.487684E-8
         1864.968     3.006145E-8
         1866.627     2.520042E-8
         1868.287     2.029428E-8
         1869.948     1.533961E-8
         1871.612     3.123160E-8
         1873.277     4.795401E-8
         1874.943     6.482886E-8
         1876.611     8.187921E-8
          1878.28     9.908477E-8
         1879.951     1.164221E-7
         1881.624     1.465860E-7
         1883.297     1.773699E-7
         1884.973     2.084322E-7
         1886.648     2.397146E-7
         1888.326     2.712976E-7
         1890.007     3.030651E-7
         1891.687     3.136409E-7
          1893.37     3.243122E-7
         1895.055     3.350661E-7
          1896.74     3.458966E-7
         1898.427     3.568174E-7
         1900.116     3.647828E-7
         1901.806     3.315967E-7
         1903.497     2.981157E-7
         1905.191     2.643168E-7
         1906.885     2.302405E-7
         1908.581     1.958440E-7
          1910.28     1.630173E-7
         1911.978     1.394467E-7
         1913.679     1.156532E-7
         1915.381     9.166533E-8
         1917.085     6.745307E-8
         1918.791     4.303114E-8
         1920.498     2.520808E-8
         1922.205     2.384203E-8
         1923.915     2.246167E-8
         1925.628     2.106789E-8
         1927.339     1.966415E-8
         1929.054     1.824602E-8
         1930.769     2.488788E-8
         1932.487     4.157355E-8
         1934.207     5.840351E-8
         1935.926     7.536617E-8
         1937.649     9.248364E-8
         1939.372     1.097370E-7
         1941.096     1.546113E-7
         1942.824     2.157646E-7
         1944.552     2.773650E-7
         1946.281     3.394874E-7
         1948.013     4.021775E-7
         1949.746     4.653979E-7
          1951.48     4.640805E-7
         1953.216     4.515130E-7
         1954.954     4.388235E-7
         1956.691     4.260291E-7
         1958.432     4.130961E-7
         1960.176     4.008532E-7
         1961.917     3.958704E-7
         1963.663     3.908272E-7
          1965.41     3.857297E-7
         1967.158     3.805813E-7
         1968.907     3.753778E-7
          1970.66     3.688587E-7
         1972.412     3.601953E-7
         1974.167     3.514417E-7
         1975.922     3.426148E-7
          1977.68     3.336916E-7
          1979.44     3.246771E-7
           1981.2     3.226361E-7
         1982.962     3.238703E-7
         1984.726     3.251069E-7
         1986.491     3.263445E-7
         1988.259     3.275846E-7
         1990.028     3.289370E-7
         1991.797     3.372682E-7
         1993.568     3.456607E-7
         1995.342     3.541210E-7
         1997.117     3.626436E-7
         1998.893     3.712226E-7
         2000.672     3.662771E-7
         2002.451     3.387694E-7
         2004.232     3.109602E-7
         2006.016     2.828685E-7
         2007.799     2.545087E-7
         2009.586     2.258425E-7
         2011.373     2.069723E-7
         2013.161     1.909634E-7
         2014.953     1.747703E-7
         2016.745     1.584342E-7
         2018.538     1.419321E-7
         2020.334     1.295507E-7
         2022.132     1.359210E-7
          2023.93     1.423451E-7
         2025.731     1.488311E-7
         2027.532     1.553713E-7
         2029.335     1.619700E-7
         2031.141     1.623627E-7
         2032.949     1.590776E-7
         2034.756     1.557604E-7
         2036.566     1.524065E-7
         2038.378     1.490139E-7
          2040.19     1.438762E-7
         2042.006     1.240174E-7
         2043.821     1.039802E-7
          2045.64     8.373674E-8
          2047.46     6.329940E-8
         2049.279     4.269229E-8
         2051.104     3.202508E-8
         2052.929     2.793669E-8
         2054.753     2.381410E-8
         2056.581     1.964773E-8
         2058.411     1.544180E-8
         2060.241     1.290360E-8
         2062.074     2.162021E-8
         2063.909     3.041654E-8
         2065.744     3.928704E-8
         2067.581     4.823793E-8
         2069.422     5.728041E-8
         2071.262     8.161199E-8
         2073.104     1.131641E-7
         2074.948     1.450148E-7
         2076.793     1.771273E-7
         2078.642     2.095627E-7
         2080.491     2.368062E-7
         2082.341     2.491628E-7
         2084.193     2.616303E-7
         2086.047     2.741928E-7
         2087.902     2.868589E-7
          2089.76     2.996443E-7
         2091.619     2.880280E-7
         2093.479     2.726649E-7
         2095.341     2.571558E-7
         2097.204     2.415164E-7
          2099.07     2.257296E-7
         2100.938     2.109990E-7
         2102.806     1.973364E-7
         2104.677     1.835470E-7
         2106.548     1.696499E-7
         2108.423     1.556247E-7
         2110.299     1.438198E-7
         2112.175     1.443315E-7
         2114.053     1.448444E-7
         2115.934     1.453587E-7
         2117.817     1.458744E-7
           2119.7     1.463909E-7
         2121.586     1.532456E-7
         2123.474     1.613546E-7
         2125.361     1.695125E-7
         2127.252     1.777409E-7
         2129.144     1.860282E-7
         2131.038     1.887203E-7
         2132.934     1.867484E-7
          2134.83     1.847599E-7
          2136.73     1.827525E-7
         2138.631     1.807451E-7
         2140.534     1.794829E-7
         2142.437     1.800836E-7
         2144.342     1.806858E-7
         2146.249     1.812896E-7
          2148.16     1.818957E-7
         2150.071     1.821042E-7
         2151.981     1.719149E-7
         2153.896     1.616364E-7
         2155.813     1.512814E-7
         2157.729     1.408577E-7
         2159.649     1.303488E-7
         2161.571     1.242384E-7
         2163.493     1.190896E-7
         2165.417     1.139043E-7
         2167.344     1.086764E-7
         2169.272     1.034175E-7
         2171.201     9.810800E-8
         2173.133     9.275158E-8
         2175.065     8.736438E-8
            2177.     8.193804E-8
         2178.936     7.647999E-8
         2180.875     7.097582E-8
         2182.815     6.542909E-8
         2184.755     5.985635E-8
           2186.7     5.423990E-8
         2188.645     4.859366E-8
         2190.592     4.555630E-8
         2192.539     4.856452E-8
          2194.49     5.159033E-8
         2196.441     5.463037E-8
         2198.396     5.768813E-8
         2200.352     6.082246E-8
         2202.309     6.426907E-8
         2204.267     6.776214E-8
         2206.229     7.131156E-8
         2208.191     7.490701E-8
         2210.156     7.806793E-8
         2212.121     7.554883E-8
         2214.088     7.298229E-8
         2216.059     7.036508E-8
         2218.029     6.770347E-8
         2220.002     6.499086E-8
         2221.977     5.899050E-8
         2223.953     5.289681E-8
         2225.931     4.670252E-8
         2227.912     4.041091E-8
         2229.894     3.402151E-8
         2231.876     3.071620E-8
         2233.862     2.753702E-8
         2235.849     2.430945E-8
         2237.837     2.103529E-8
         2239.828     1.770988E-8
          2241.82     2.709331E-8
         2243.814     3.782577E-8
         2245.811     4.870643E-8
         2247.809     5.973330E-8
         2249.808     7.090286E-8
         2251.808     7.893752E-8
         2253.812     8.672910E-8
         2255.817     9.461807E-8
         2257.823     1.026019E-7
         2259.831     1.106858E-7
         2261.841     1.051126E-7
         2263.854     9.818677E-8
         2265.865     9.117398E-8
         2267.883     8.405156E-8
         2269.901     7.683706E-8
         2271.918     6.952637E-8
         2273.939     6.211021E-8
         2275.962     5.459833E-8
         2277.988     4.698940E-8
         2280.013     3.931451E-8
         2282.042     3.552205E-8
         2284.071     3.168418E-8
         2286.103     2.779563E-8
         2288.136     2.386085E-8
         2290.172     2.022284E-8
         2292.209     2.033235E-8
         2294.248     2.044199E-8
         2296.288     2.055283E-8
         2298.331     2.066994E-8
         2300.376     2.078712E-8
         2302.421     2.090351E-8
          2304.47     2.102026E-8
         2306.519     2.113721E-8
          2308.57     2.125446E-8
         2310.625     2.137166E-8
         2312.681     2.148799E-8
         2314.736     2.160445E-8
         2316.796     2.172134E-8
         2318.857     2.183849E-8
         2320.919     2.397274E-8
         2322.983     2.865442E-8
         2325.049     3.339101E-8
         2327.118     3.818114E-8
         2329.187     4.302045E-8
          2331.26     4.791449E-8
         2333.334     5.285969E-8
         2335.409     5.785454E-8
         2337.485     6.290276E-8
         2339.565     6.800758E-8
         2341.648     7.316471E-8
         2343.729     7.836513E-8
         2345.814     8.362466E-8
         2347.901     8.893804E-8
         2349.989     9.430239E-8
          2352.08     1.046447E-7
         2354.171     1.151114E-7
         2356.266     1.256922E-7
         2358.361     1.363729E-7
         2360.458     1.449433E-7
          2362.56     1.456272E-7
         2364.661     1.463116E-7
         2366.764     1.469978E-7
         2368.869     1.476851E-7
         2370.977     1.483682E-7
         2373.085     1.490455E-7
         2375.196     1.497245E-7
          2377.31     1.504049E-7
         2379.422     1.510858E-7
         2381.539     1.556532E-7
          2383.66     1.617296E-7
         2385.778     1.678479E-7
         2387.901     1.740280E-7
         2390.024     1.801964E-7
          2392.15     1.809694E-7
         2394.279     1.817439E-7
         2396.409     1.825199E-7
          2398.54     1.832968E-7
         2400.673     1.805326E-7
         2402.809     1.700008E-7
         2404.947     1.593668E-7
         2407.086     1.486315E-7
         2409.225     1.378055E-7
         2411.369     1.305316E-7
         2413.514     1.252741E-7
         2415.662     1.199659E-7
          2417.81     1.146105E-7
         2419.961     1.092011E-7
         2422.113     9.216576E-8
         2424.267     7.476429E-8
         2426.425     5.718934E-8
         2428.584     3.947002E-8
         2430.742     2.574396E-8
         2432.905     1.980525E-8
         2435.069     1.381486E-8
         2437.235     7.777373E-9
         2439.403     1.685123E-9
         2441.572              0.
         2443.745              0.
         2445.917              0.
         2448.094              0.
         2450.272              0.
         2452.451              0.
         2454.631              0.
         2456.815              0.
            2459.              0.
         2461.188     3.477494E-9
         2463.378     9.924372E-9
         2465.569     1.642195E-8
          2467.76     2.296381E-8
         2469.958     2.956913E-8
         2472.154     3.621731E-8
         2474.353     4.292093E-8
         2476.553     4.967274E-8
         2478.756     5.647665E-8
         2480.961     6.623973E-8
         2483.167     7.984597E-8
         2485.378     9.357490E-8
         2487.588     1.073905E-7
         2489.801     1.213189E-7
         2492.015     1.229581E-7
         2494.231     1.233789E-7
         2496.451     1.238009E-7
          2498.67     1.242229E-7
         2500.893     1.246461E-7
         2503.118     1.250700E-7
         2505.345     1.254948E-7
         2507.573     1.259199E-7
         2509.803     1.263458E-7
         2512.036     1.332273E-7
          2514.27     1.407820E-7
         2516.507     1.483970E-7
         2518.746     1.560672E-7
         2520.985     1.637895E-7
         2523.228     1.715725E-7
         2525.472     1.794074E-7
         2527.719     1.873037E-7
         2529.967     1.952512E-7
         2532.218     1.887761E-7
         2534.471     1.820291E-7
         2536.723     1.752351E-7
          2538.98     1.681074E-7
          2541.24     1.609074E-7
           2543.5     1.536876E-7
         2545.762     1.464366E-7
         2548.027     1.391507E-7
         2550.292     1.328110E-7
         2552.562     1.330158E-7
         2554.833     1.332198E-7
         2557.106     1.334229E-7
          2559.38     1.336251E-7
         2561.655     1.282913E-7
         2563.935     1.208500E-7
         2566.216     1.133781E-7
         2568.498     1.058805E-7
         2570.781     1.009838E-7
         2573.069     1.011393E-7
         2575.358     1.012941E-7
         2577.648     1.014481E-7
         2579.942     1.016016E-7
         2582.236     1.017593E-7
         2584.533     1.019166E-7
         2586.833     1.020732E-7
         2589.135     1.022292E-7
         2591.435     1.023874E-7
         2593.741     1.025469E-7
         2596.049     1.027059E-7
         2598.357     1.028640E-7
         2600.669     1.030232E-7
         2602.981     1.031854E-7
         2605.297     1.033471E-7
         2607.614     1.035080E-7
         2609.936     1.036684E-7
         2612.256     9.602444E-8
         2614.579     8.812486E-8
         2616.906     8.018659E-8
         2619.232     7.222055E-8
         2621.564     6.966230E-8
         2623.894     6.977380E-8
         2626.229     6.988497E-8
         2628.565     6.999566E-8
         2630.904     7.010735E-8
         2633.243     7.022081E-8
         2635.585     7.033380E-8
          2637.93     7.044636E-8
         2640.275     7.153022E-8
         2642.625     7.994694E-8
         2644.976     8.839765E-8
         2647.328     9.687601E-8
         2649.683     1.053934E-7
         2652.039     1.066912E-7
         2654.399     1.068639E-7
         2656.759     1.070358E-7
         2659.123     1.072069E-7
         2661.489     1.020512E-7
         2663.854     9.373659E-8
         2666.224     8.537658E-8
         2668.598     7.697557E-8
         2670.971     6.855097E-8
         2673.346     6.009168E-8
         2675.724     5.159135E-8
         2678.104     4.306145E-8
         2680.486     3.625419E-8
          2682.87     3.631247E-8
         2685.258     3.637054E-8
         2687.645     3.642823E-8
         2690.036     3.661668E-8
         2692.429     4.542098E-8
         2694.823     5.425619E-8
         2697.221     6.313114E-8
         2699.619     7.203484E-8
         2702.021     8.108648E-8
         2704.424     9.021287E-8
         2706.829     9.940279E-8
         2709.239     1.086667E-7
         2711.648     1.056998E-7
         2714.059     9.701079E-8
         2716.474     8.825270E-8
         2718.891     7.943068E-8
         2721.308     7.548908E-8
         2723.729     7.572296E-8
         2726.153     7.595706E-8
         2728.577     7.619128E-8
         2731.003     7.642603E-8
         2733.433     7.666155E-8
         2735.865     7.689733E-8
         2738.298     7.713318E-8
         2740.733     8.020393E-8
         2743.171     8.991336E-8
         2745.612     9.968861E-8
         2748.055     1.095308E-7
         2750.499     1.193779E-7
         2752.946     1.290501E-7
         2755.394     1.387401E-7
         2757.845     1.484587E-7
         2760.299     1.570258E-7
         2762.752     1.571384E-7
          2765.21     1.572512E-7
          2767.67     1.573642E-7
         2770.131     1.574772E-7
         2772.596     1.575894E-7
         2775.063     1.577017E-7
         2777.531     1.578141E-7
            2780.     1.579256E-7
         2782.475     1.482574E-7
         2784.949     1.385776E-7
         2787.427     1.288708E-7
         2789.906     1.191475E-7
         2792.386     1.093997E-7
         2794.873     9.961742E-8
         2797.356     8.983149E-8
         2799.845     8.001110E-8
         2802.336     7.016756E-8
          2804.83     6.030321E-8
         2807.324     5.042199E-8
         2809.822     4.051320E-8
          2812.32     3.982815E-8
         2814.821     3.985340E-8
         2817.325     3.987870E-8
         2819.833     3.990404E-8
         2822.339     3.058877E-8
          2824.85     2.057440E-8
         2827.362     1.054482E-8
         2829.878    4.892810E-10
         2832.396     9.589214E-9
         2834.914     1.968174E-8
         2837.437     2.980105E-8
         2839.959     3.993543E-8
         2842.485     6.005985E-8
         2845.015     8.041119E-8
         2847.545     1.007799E-7
         2850.077     1.202593E-7
         2852.613     1.101295E-7
         2855.151     9.997937E-8
          2857.69     8.981490E-8
         2860.233     7.962315E-8
         2862.777     6.941095E-8
         2865.323     5.918368E-8
         2867.871     4.893637E-8
         2870.423     4.207393E-8
         2872.976     5.241007E-8
         2875.531     6.276095E-8
         2878.088     7.313152E-8
         2880.649     8.615265E-8
         2883.212     1.069435E-7
         2885.775     1.277618E-7
         2888.343     1.486331E-7
         2890.913     1.658424E-7
         2893.483     1.763494E-7
         2896.058     1.868828E-7
         2898.633     1.974295E-7
          2901.21     1.979955E-7
         2903.792     1.872740E-7
         2906.375     1.765715E-7
         2908.961     1.658861E-7
         2911.546     1.614726E-7
         2914.137     1.612553E-7
          2916.73     1.610376E-7
         2919.323     1.608195E-7
         2921.922     1.683176E-7
         2924.519     1.784977E-7
         2927.121     1.886698E-7
         2929.725     1.988213E-7
         2932.332     1.996385E-7
         2934.941     1.993566E-7
         2937.549     1.990744E-7
         2940.163     1.987913E-7
         2942.779     1.985079E-7
         2945.397     1.982239E-7
         2948.016     1.979394E-7
         2950.637     1.926134E-7
         2953.263     1.716035E-7
         2955.889     1.506504E-7
         2958.519     1.297271E-7
         2961.153     1.178930E-7
         2963.784     1.177179E-7
         2966.421     1.175422E-7
         2969.061     1.173662E-7
         2971.701     1.238324E-7
         2974.343     1.339504E-7
          2976.99     1.440526E-7
         2979.638     1.541314E-7
         2982.286     1.375466E-7
         2984.939     1.167623E-7
         2987.597     9.600944E-8
         2990.253     7.630752E-8
         2992.914     6.592224E-8
         2995.575     5.556629E-8
         2998.239     4.523407E-8
         3000.907     3.839999E-8
         3003.575     3.833855E-8
         3006.249     3.827692E-8
         3008.921     3.821527E-8
         3011.598     4.424906E-8
         3014.277     5.438457E-8
         3016.958     6.448860E-8
         3019.642     7.457484E-8
         3022.327     6.698951E-8
         3025.016     5.670304E-8
         3027.706     4.644652E-8
         3030.398     3.771628E-8
         3033.096     3.765284E-8
         3035.793     3.758935E-8
         3038.494     3.752571E-8
         3041.198     3.746194E-8
           3043.9     3.739813E-8
         3046.608     3.733413E-8
         3049.319     3.727000E-8
         3052.032     4.476654E-8
         3054.748     5.477375E-8
         3057.462     6.474305E-8
         3060.183     7.469851E-8
         3062.905     8.462650E-8
         3065.629     9.452247E-8
         3068.356     1.043969E-7
         3071.085     1.062654E-7
         3073.817     9.605129E-8
         3076.551     8.587100E-8
         3079.288     7.571099E-8
         3082.028     7.297565E-8
         3084.768     7.284319E-8
         3087.513     7.271040E-8
         3090.258     7.164101E-8
         3093.006     6.155555E-8
         3095.758     5.149232E-8
         3098.512     4.145689E-8
         3101.269     3.607675E-8
         3104.025     3.612965E-8
         3106.787     3.618269E-8
         3109.551     3.623580E-8
         3112.316     3.628898E-8
         3115.087     3.634232E-8
         3117.855     3.639563E-8
         3120.631     3.644913E-8
         3123.406     3.650267E-8
         3126.185     3.655631E-8
         3128.967     3.661004E-8
         3131.749     3.666365E-8
         3134.533     3.671724E-8
         3137.322     3.677092E-8
         3140.114     3.724367E-8
         3142.906     4.759594E-8
         3145.701     5.798764E-8
           3148.5     6.842522E-8
         3151.301     7.408383E-8
         3154.103     7.419226E-8
         3156.911     7.430101E-8
         3159.716     7.440973E-8
         3162.528     7.451884E-8
         3165.342     7.462813E-8
         3168.158     7.473759E-8
         3170.975     7.849517E-8
         3173.794     8.917681E-8
         3176.618     9.990600E-8
         3179.443     1.106690E-7
          3182.27     1.129275E-7
         3185.103     1.130936E-7
         3187.936     1.132597E-7
         3190.772     1.134259E-7
         3193.609     1.135917E-7
         3196.451     1.137578E-7
         3199.293     1.139241E-7
         3202.138     9.783127E-8
         3204.989     7.625922E-8
          3207.84     5.461818E-8
         3210.691     3.555931E-8
         3213.547     2.468381E-8
         3216.407     1.376588E-8
         3219.267     2.813810E-9
         3222.129     8.180848E-9
         3224.996     1.922469E-8
         3227.865     3.031032E-8
         3230.734     3.859239E-8
         3233.612     3.864916E-8
         3236.487     3.870591E-8
         3239.365     3.876275E-8
         3242.247     4.754413E-8
          3245.13     5.882309E-8
         3248.016     7.014484E-8
         3250.906     7.445340E-8
         3253.798     6.326848E-8
         3256.693     5.203998E-8
         3259.587     4.078200E-8
         3262.489     3.922291E-8
          3265.39     3.928075E-8
         3268.294     3.933868E-8
         3271.202     4.413109E-8
          3274.11     5.567307E-8
         3277.024     6.726766E-8
         3279.939     7.890533E-8
         3282.858     7.926308E-8
         3285.779     7.938043E-8
         3288.698     7.949782E-8
         3291.625     7.961601E-8
         3294.553     7.973477E-8
         3297.481     7.985356E-8
         3300.415     7.997274E-8
         3303.351     8.009223E-8
          3306.29     8.021190E-8
         3309.229     8.033162E-8
         3312.175     7.170453E-8
         3315.122     5.993947E-8
         3318.069     4.813603E-8
         3321.022     3.627844E-8
         3323.975     2.438324E-8
         3326.932     1.243353E-8
          3329.89    4.449326E-10
         3332.853     1.159864E-8
         3335.819     2.368857E-8
         3338.785     3.581800E-8
         3341.754     4.083502E-8
         3344.727     4.089689E-8
         3347.703     4.095888E-8
         3350.681     4.102098E-8
         3353.659     4.108318E-8
         3356.643     4.114556E-8
         3359.629     4.120804E-8
         3362.617     4.127069E-8
          3365.61     4.133353E-8
         3368.601     4.139635E-8
         3371.598     4.808647E-8
         3374.598     6.061722E-8
         3377.601     7.319645E-8
         3380.604     8.330145E-8
          3383.61     8.342951E-8
         3386.621     8.355787E-8
         3389.632     8.368636E-8
         3392.648     1.060101E-7
         3395.667     1.315140E-7
         3398.686     1.571049E-7
          3401.71     1.756129E-7
         3404.737     1.886488E-7
         3407.764     2.017277E-7
         3410.794     2.081406E-7
         3413.829     1.956084E-7
         3416.866     1.830252E-7
         3419.906     1.703900E-7
         3422.946     1.827972E-7
         3425.991     1.960678E-7
         3429.039     2.093923E-7
         3432.088     2.227631E-7
         3435.142     2.361968E-7
         3438.197     2.496755E-7
         3441.256     2.632169E-7
         3444.316     2.768055E-7
         3447.382     2.904645E-7
         3450.448     3.041622E-7
         3453.516     3.179182E-7
         3456.588     3.317380E-7
         3459.662     3.456041E-7
          3462.74     3.357230E-7
         3465.819     3.228616E-7
         3468.903     3.099380E-7
         3471.989     3.230210E-7
         3475.074     3.505313E-7
         3478.168     3.782083E-7
         3481.261     4.668387E-7
         3484.359     6.445720E-7
         3487.459     8.230406E-7
         3490.558     1.048772E-6
         3493.667     1.489986E-6
         3496.772     1.931917E-6
         3499.883     2.376270E-6
         3502.997     3.301430E-6
          3506.11     4.247956E-6
          3509.23     5.199692E-6
         3512.352     7.089222E-6
         3515.477     9.293279E-6
         3518.603     1.150537E-5
         3521.732     1.499220E-5
         3524.867     1.952315E-5
         3528.001     2.406748E-5
         3531.138     3.008791E-5
          3534.28     3.870429E-5
         3537.423     4.735192E-5
          3540.57     5.724588E-5
          3543.72     7.263432E-5
         3546.874     8.808916E-5
         3550.025     1.036702E-4
         3553.184     1.292258E-4
         3556.345     1.548904E-4
         3559.508     1.806482E-4
         3562.673     2.179027E-4
         3565.843     2.574407E-4
         3569.015     2.971541E-4
         3572.191     3.485306E-4
         3575.367     4.052814E-4
         3578.548     4.623104E-4
          3581.73     5.284145E-4
         3584.915     6.022722E-4
         3588.107     6.765333E-4
         3591.297     7.497001E-4
         3594.491     8.212299E-4
         3597.689     8.931112E-4
          3600.89     9.556737E-4
         3604.092     9.933851E-4
         3607.296     0.001031257
         3610.506     0.001069317
         3613.719     0.001107533
          3616.93     0.001145863
         3620.152     0.001184457
         3623.369     0.001223146
         3626.593      0.00126205
          3629.82     0.001301122
         3633.047     0.001340327
         3636.278     0.001379701
         3639.513     0.001419267
         3642.751     0.001552558
         3645.992     0.001712774
         3649.232     0.001873667
         3652.481      0.00204266
         3655.729     0.002218008
         3658.979     0.002424774
         3662.235     0.002641157
         3665.493     0.002871353
         3668.753     0.003118929
         3672.015     0.003370211
         3675.284      0.00364285
         3678.554     0.003920245
         3681.823     0.004219241
         3685.099     0.004531897
         3688.378     0.004849037
         3691.656     0.005192012
          3694.94     0.005548326
         3698.228     0.005914608
         3701.518     0.006282295
         3704.807     0.006663322
         3708.106     0.007052225
         3711.405     0.007449802
         3714.705     0.007838858
          3718.01      0.00823654
         3721.316     0.008646674
         3724.625     0.009046584
         3727.939     0.009445578
         3731.256     0.009846928
         3734.576       0.0102547
         3737.895      0.01066418
         3741.223      0.01105718
         3744.549      0.01144345
         3747.881      0.01182731
         3751.216      0.01220075
         3754.549      0.01257241
          3757.89      0.01295147
         3761.233      0.01331639
          3764.58       0.0136796
         3767.927      0.01402809
         3771.278      0.01438202
         3774.633      0.01475571
         3777.991      0.01511322
         3781.351      0.01548126
         3784.715      0.01583062
         3788.081      0.01620352
         3791.451      0.01657471
         3794.824      0.01694736
         3798.199      0.01732386
         3801.578      0.01771901
         3804.958      0.01812321
         3808.344      0.01850003
         3811.732      0.01890817
         3815.122       0.0193149
         3818.514      0.01973063
         3821.912      0.02017987
         3825.312      0.02064175
         3828.714      0.02108286
          3832.12      0.02154557
         3835.528      0.02201624
          3838.94       0.0224801
         3842.356      0.02295277
         3845.772      0.02344853
         3849.192      0.02393704
         3852.617      0.02444191
         3856.045      0.02495167
         3859.476       0.0254789
         3862.905      0.02599417
         3866.342      0.02650331
         3869.782      0.02698983
         3873.223      0.02749764
         3876.672      0.02801259
         3880.117      0.02849587
         3883.569      0.02899249
         3887.024      0.02946737
          3890.48      0.02995254
         3893.942       0.0304187
         3897.405      0.03087865
         3900.872      0.03131555
         3904.343      0.03177514
         3907.813      0.03219164
         3911.292       0.0325816
          3914.77      0.03296184
         3918.253      0.03332707
         3921.737      0.03373546
         3925.224      0.03409071
         3928.716      0.03440684
         3932.212      0.03475926
         3935.711      0.03506065
         3939.212      0.03537014
         3942.713      0.03568915
         3946.221      0.03596094
         3949.732       0.0362236
         3953.244      0.03652732
         3956.761      0.03676487
          3960.28      0.03700186
         3963.803      0.03727515
         3967.328      0.03750861
         3970.858       0.0377731
         3974.391       0.0379722
         3977.925      0.03822225
         3981.464      0.03848451
         3985.005      0.03872963
         3988.548      0.03895089
         3992.097      0.03918861
         3995.649      0.03945629
         3999.204      0.03973486
         4002.758      0.03995404
         4006.319      0.04012496
         4009.884      0.04031711
         4013.451      0.04049895
         4017.022      0.04067358
         4020.592      0.04090032
         4024.169      0.04107726
          4027.75      0.04128014
         4031.333      0.04146435
          4034.92       0.0416987
         4038.506      0.04189957
         4042.099      0.04213898
         4045.696      0.04236964
         4049.295      0.04252832
         4052.898      0.04273718
           4056.5       0.0429998
         4060.109      0.04318561
         4063.721      0.04337816
         4067.337      0.04359658
         4070.954      0.04379985
         4074.573      0.04401654
         4078.199      0.04418936
         4081.827      0.04432986
         4085.457      0.04453797
         4089.092      0.04475261
         4092.728      0.04489167
         4096.369      0.04505881
         4100.012      0.04518586
          4103.66      0.04531149
         4107.309      0.04545101
         4110.963      0.04557259
         4114.621      0.04573106
         4118.279      0.04581918
         4121.941      0.04587533
         4125.609      0.04595028
          4129.28       0.0460242
         4132.954      0.04611811
         4136.626      0.04614576
         4140.307      0.04618512
         4143.991      0.04621818
         4147.675       0.0462608
         4151.368      0.04630328
          4155.06      0.04627166
         4158.754      0.04624662
         4162.454      0.04625918
         4166.156      0.04625704
         4169.862      0.04625255
          4173.57      0.04623597
         4177.284      0.04618732
            4181.       0.0461801
         4184.716      0.04613452
         4188.441      0.04612491
         4192.166      0.04611594
         4195.896      0.04610587
         4199.629       0.0460334
         4203.361      0.04603918
         4207.101      0.04612306
         4210.844      0.04616529
          4214.59      0.04621569
         4218.338      0.04625764
         4222.089      0.04630347
         4225.846       0.0463802
         4229.605      0.04647609
         4233.366      0.04650479
         4237.133      0.04660042
           4240.9      0.04668888
         4244.674       0.0467689
         4248.448      0.04686819
         4252.229      0.04699054
         4256.009      0.04711395
         4259.796      0.04722665
         4263.586      0.04740175
         4267.377      0.04756687
         4271.174      0.04768024
         4274.972      0.04786672
         4278.776      0.04803035
         4282.583      0.04818881
         4286.388      0.04836143
         4290.205      0.04855997
          4294.02      0.04880542
          4297.84      0.04897454
         4301.664      0.04919798
         4305.489      0.04938376
         4309.317      0.04957861
         4313.151      0.04977736
         4316.989      0.04999072
          4320.83      0.05018029
          4324.67      0.05038783
         4328.518      0.05055549
         4332.369      0.05076926
         4336.224      0.05095823
         4340.082      0.05112011
         4343.938      0.05133215
         4347.803      0.05154436
         4351.672      0.05170442
         4355.544      0.05188018
         4359.417      0.05199865
         4363.293      0.05215553
         4367.175      0.05224919
         4371.061      0.05236499
         4374.948      0.05245329
          4378.84      0.05248849
         4382.734      0.05253203
         4386.633       0.0525851
         4390.534      0.05262939
          4394.44      0.05260453
         4398.348      0.05259283
         4402.261      0.05259015
         4406.178      0.05253137
         4410.099      0.05251861
         4414.018      0.05245421
         4417.945      0.05241613
         4421.875      0.05234468
          4425.81      0.05223141
         4429.745      0.05211446
         4433.684      0.05201555
         4437.629      0.05186525
         4441.575       0.0517632
         4445.529      0.05166284
         4449.482      0.05155721
         4453.438      0.05139704
         4457.401      0.05125533
         4461.364      0.05116214
         4465.334      0.05099649
         4469.305      0.05085895
         4473.281      0.05078071
         4477.261      0.05068267
          4481.24      0.05058958
         4485.227      0.05050787
         4489.218      0.05041653
         4493.212      0.05035405
         4497.207      0.05027954
         4501.206      0.05023972
         4505.213      0.05036057
         4509.219      0.05052145
         4513.231      0.05071007
         4517.247      0.05094326
         4521.261      0.05114517
         4525.284      0.05131837
         4529.311      0.05158741
          4533.34      0.05179724
         4537.371      0.05199984
         4541.408       0.0522495
         4545.447      0.05261848
         4549.491      0.05288524
         4553.536       0.0532453
         4557.585      0.05359896
          4561.64      0.05388361
         4565.699      0.05428521
         4569.761       0.0546374
         4573.827      0.05502054
         4577.892       0.0553933
         4581.965      0.05588439
         4586.042      0.05624676
          4590.12      0.05664191
         4594.204      0.05709611
         4598.289      0.05752464
          4602.38      0.05797341
         4606.472      0.05838898
         4610.568      0.05887123
          4614.67      0.05926079
         4618.776      0.05964224
         4622.886      0.06009852
         4626.999      0.06052765
         4631.113       0.0608782
         4635.231      0.06131364
         4639.355      0.06161318
         4643.483      0.06197102
         4647.612      0.06224171
         4651.748       0.0625695
         4655.884      0.06291709
         4660.026      0.06318709
          4664.17      0.06347045
         4668.317      0.06365521
         4672.471      0.06382269
         4676.628      0.06397431
         4680.789      0.06410424
         4684.954      0.06419075
         4689.117      0.06433841
         4693.289      0.06438462
         4697.465      0.06439083
         4701.645      0.06445512
         4705.825      0.06444077
         4710.012       0.0644314
           4714.2      0.06434394
         4718.392      0.06427082
          4722.59       0.0641432
          4726.79      0.06407181
         4730.995      0.06398861
         4735.205       0.0639082
         4739.417      0.06379929
         4743.629      0.06370327
          4747.85      0.06359859
         4752.074      0.06351966
         4756.302      0.06336023
         4760.532      0.06324333
         4764.767      0.06311511
         4769.004       0.0630233
         4773.247      0.06296807
         4777.492      0.06292864
         4781.742      0.06288438
         4785.994      0.06282918
         4790.252      0.06287307
         4794.515      0.06286146
          4798.78       0.0629029
         4803.045      0.06291465
         4807.318      0.06295276
         4811.596      0.06299949
         4815.877      0.06317364
         4820.162      0.06322897
         4824.448      0.06336649
         4828.737       0.0635227
         4833.034      0.06368634
         4837.332      0.06390426
         4841.635      0.06410023
          4845.94      0.06432406
         4850.252      0.06454094
         4854.567      0.06477091
         4858.881      0.06503835
         4863.205      0.06527269
         4867.532      0.06558194
         4871.862      0.06590346
         4876.197      0.06620963
         4880.533      0.06651245
         4884.875      0.06683274
         4889.219      0.06713588
         4893.566      0.06750006
          4897.92      0.06780205
         4902.276      0.06817855
         4906.638      0.06851727
         4911.003      0.06883074
         4915.373      0.06919829
         4919.741      0.06953513
         4924.118      0.06990177
         4928.499      0.07023182
         4932.884      0.07056373
         4937.273      0.07088723
         4941.664      0.07117914
         4946.058      0.07154793
         4950.458      0.07190026
          4954.86      0.07230391
         4959.269       0.0726099
         4963.679      0.07302992
         4968.095       0.0733849
         4972.515      0.07384361
         4976.934      0.07424831
         4981.362      0.07467072
         4985.794      0.07517204
          4990.23      0.07566556
          4994.67      0.07622518
         4999.112      0.07682747
          5003.56      0.07742105
         5008.009      0.07810788
         5012.464      0.07883065
         5016.921      0.07956491
         5021.385      0.08035173
          5025.85      0.08110272
         5030.322      0.08193851
         5034.795      0.08280384
         5039.272      0.08353645
         5043.755      0.08437486
         5048.243      0.08509309
         5052.735      0.08576106
          5057.23      0.08623233
         5061.727      0.08664504
         5066.228      0.08676272
         5070.736        0.086725
         5075.248      0.08634438
          5079.76      0.08568161
          5084.28       0.0846512
         5088.801      0.08316519
         5093.329      0.08130247
         5097.857      0.07896509
         5102.391      0.07622302
          5106.93      0.07314122
         5111.474       0.0697519
         5116.022      0.06602726
         5120.574      0.06208845
         5125.124      0.05806391
         5129.684      0.05393587
         5134.249      0.04982264
         5138.813       0.0458695
         5143.386      0.04205334
         5147.959      0.03839715
          5152.54      0.03498185
         5157.122      0.03177125
         5161.707      0.02880348
           5166.3      0.02614106
         5170.896      0.02368004
         5175.497      0.02141524
         5180.102      0.01934863
         5184.708      0.01749164
         5189.318      0.01581935
         5193.936      0.01430434
         5198.557      0.01295198
         5203.179      0.01173567
         5207.809      0.01063814
         5212.439     0.009666162
         5217.077     0.008786675
         5221.716     0.007995665
         5226.359      0.00728935
         5231.009     0.006657369
         5235.664     0.006072545
         5240.322     0.005556623
         5244.984     0.005079692
         5249.646     0.004665669
         5254.316     0.004286979
         5258.991     0.003939954
          5263.67     0.003626693
         5268.351     0.003245073
         5273.038     0.002524742
         5277.727      0.00234273
          5282.42     0.002176945
          5287.12     0.002026416
         5291.821     0.001885458
         5296.529     0.001760265
         5301.242     0.001640049
         5305.959     0.001535564
         5310.674      0.00143303
         5315.399     0.001345186
         5320.128     0.001257092
         5324.862      0.00118285
         5329.597     0.001108109
         5334.339     0.001043906
         5339.082     9.803142E-4
         5343.833     9.246741E-4
         5348.584     8.706978E-4
          5353.34     8.224061E-4
         5358.103     7.763215E-4
          5362.87     7.340565E-4
         5367.642     6.942335E-4
         5372.417     6.569841E-4
         5377.192     6.222996E-4
         5381.976     5.894451E-4
         5386.765     5.593768E-4
         5391.558     5.305242E-4
         5396.354     5.044547E-4
         5401.153     4.791140E-4
         5405.956     4.564605E-4
         5410.766     4.341202E-4
         5415.577     4.142404E-4
         5420.396     3.944254E-4
         5425.215     3.769649E-4
         5430.042     3.593905E-4
         5434.874     3.438677E-4
         5439.703     3.282554E-4
         5444.543     3.143667E-4
         5449.387     3.005015E-4
         5454.236     2.880620E-4
         5459.089     2.757563E-4
         5463.943     2.645565E-4
         5468.804     2.535462E-4
         5473.667     2.434772E-4
         5478.534     2.336692E-4
         5483.409     2.245632E-4
         5488.285     2.157342E-4
         5493.168     2.075238E-4
         5498.055     1.996294E-4
         5502.947     1.921843E-4
         5507.837     1.850336E-4
         5512.738     1.783207E-4
         5517.643     1.719549E-4
         5522.552     1.658772E-4
         5527.466     1.600666E-4
         5532.381     1.544991E-4
           5537.3     1.491926E-4
         5542.227     1.441091E-4
         5547.158     1.393104E-4
          5552.09     1.347043E-4
         5557.027     1.303694E-4
         5561.972     1.261596E-4
          5566.92     1.221580E-4
         5571.871     1.182823E-4
         5576.825     1.146281E-4
         5581.787     1.110907E-4
         5586.753     1.077844E-4
         5591.724     1.045495E-4
         5596.699     1.014691E-4
         5601.676     9.842712E-5
         5606.657     9.548104E-5
         5611.645     9.263276E-5
         5616.635     9.000101E-5
         5621.632     8.742308E-5
         5626.631     8.497285E-5
         5631.637     8.257815E-5
         5636.645     8.031290E-5
         5641.657     7.810683E-5
         5646.676     7.602811E-5
         5651.701     7.401079E-5
         5656.729     7.212219E-5
         5661.762     7.029849E-5
         5666.796     6.860340E-5
         5671.835     6.707737E-5
         5676.882     6.585216E-5
         5681.933     6.480816E-5
         5686.985     6.406109E-5
         5692.045     6.238097E-5
         5697.106     5.932245E-5
         5702.175     5.700224E-5
         5707.246     5.567579E-5
         5712.321     5.440853E-5
         5717.403     5.321244E-5
          5722.49     5.201160E-5
         5727.582     5.080638E-5
         5732.678     4.967114E-5
         5737.772     4.860052E-5
         5742.877     4.756432E-5
         5747.987     4.655503E-5
         5753.101     4.558583E-5
         5758.217     4.464209E-5
         5763.337     4.374167E-5
         5768.465     4.286243E-5
         5773.594     4.203058E-5
         5778.731     4.121650E-5
         5783.869     4.040042E-5
         5789.016     3.958085E-5
         5794.166     3.881677E-5
         5799.322     3.806358E-5
         5804.481     3.737176E-5
          5809.64     3.668787E-5
         5814.809     3.606842E-5
         5819.982     3.545173E-5
         5825.157     3.476020E-5
          5830.34     3.407506E-5
         5835.524     3.352579E-5
         5840.713     3.297453E-5
          5845.91     3.242133E-5
         5851.108     3.186629E-5
         5856.314     3.130839E-5
         5861.525     3.077057E-5
          5866.74     3.028420E-5
          5871.96     2.982429E-5
         5877.178     2.941023E-5
         5882.407     2.895933E-5
         5887.641     2.846584E-5
         5892.879     2.801227E-5
          5898.12     2.759152E-5
         5903.367     2.716895E-5
         5908.617     2.674504E-5
         5913.874     2.637606E-5
         5919.132     2.602618E-5
         5924.396     2.561044E-5
         5929.667     2.518015E-5
         5934.942     2.489333E-5
         5940.223     2.461195E-5
         5945.508     2.425519E-5
         5950.792     2.389754E-5
         5956.086     2.353811E-5
         5961.386     2.319786E-5
          5966.69     2.291438E-5
         5971.996     2.262984E-5
         5977.306     2.234402E-5
         5982.624     2.205710E-5
         5987.944     2.176946E-5
         5993.271     2.148054E-5
         5998.601     2.119071E-5
         6003.938     2.094156E-5
          6009.28     2.070694E-5
         6014.626     2.040344E-5
         6019.971     2.008925E-5
         6025.328     1.985352E-5
         6030.688     1.961792E-5
         6036.054     1.938197E-5
         6041.425     1.914571E-5
         6046.797     1.890925E-5
         6052.173     1.867263E-5
         6057.559     1.843568E-5
         6062.945     1.819841E-5
         6068.339     1.796052E-5
         6073.735     1.777836E-5
         6079.139     1.762074E-5
         6084.548     1.739506E-5
         6089.955     1.715649E-5
         6095.374     1.691732E-5
         6100.797     1.668971E-5
         6106.225     1.653090E-5
         6111.658     1.637189E-5
         6117.092     1.621273E-5
         6122.535     1.601540E-5
         6127.979     1.577451E-5
         6133.432     1.558438E-5
         6138.885     1.542434E-5
         6144.344     1.526428E-5
         6149.811     1.510396E-5
         6155.283     1.494314E-5
         6160.759     1.478212E-5
         6166.234     1.462109E-5
          6171.72     1.445964E-5
         6177.211     1.429797E-5
         6182.708     1.413609E-5
         6188.208     1.397398E-5
         6193.711     1.386732E-5
         6199.218     1.378737E-5
         6204.734     1.363634E-5
         6210.251     1.347350E-5
         6215.777     1.331013E-5
         6221.304     1.314671E-5
         6226.839     1.298313E-5
         6232.379     1.285492E-5
         6237.921     1.277388E-5
         6243.468     1.264088E-5
         6249.023     1.247650E-5
         6254.583     1.238046E-5
         6260.148     1.229670E-5
         6265.718     1.213129E-5
          6271.29     1.198516E-5
         6276.866     1.190333E-5
         6282.451     1.182126E-5
         6288.037     1.173903E-5
         6293.632     1.160211E-5
         6299.228     1.143562E-5
         6304.833     1.134141E-5
         6310.439     1.125872E-5
          6316.05     1.117576E-5
         6321.669     1.106756E-5
         6327.294     1.089981E-5
         6332.924     1.077583E-5
         6338.559     1.069239E-5
         6344.195     1.060876E-5
         6349.836     1.052499E-5
         6355.486     1.044107E-5
         6361.141     1.035703E-5
         6366.797     1.027279E-5
         6372.458     1.015150E-5
         6378.128     9.981755E-6
         6383.803     9.869026E-6
         6389.479     9.784407E-6
         6395.161     9.699531E-6
         6400.851     9.614479E-6
         6406.546     9.529187E-6
         6412.246     9.443816E-6
         6417.951     9.358361E-6
         6423.654     9.272821E-6
          6429.37     9.187020E-6
          6435.09     9.101141E-6
         6440.813     9.015201E-6
         6446.543     8.928999E-6
         6452.275     8.842763E-6
         6458.016     8.756398E-6
         6463.758     8.669811E-6
          6469.51     8.582980E-6
         6475.262     8.496129E-6
         6481.023     8.409151E-6
          6486.79     8.322088E-6
         6492.562     8.234827E-6
         6498.338     8.147338E-6
         6504.113     8.051713E-6
           6509.9     7.952792E-6
         6515.692     7.853921E-6
         6521.486     7.755249E-6
         6527.288     7.656606E-6
         6533.096     7.558077E-6
         6538.901     7.459794E-6
         6544.719     7.431735E-6
         6550.542     7.411961E-6
         6556.367     7.313840E-6
         6562.201     7.215854E-6
         6568.039     7.118073E-6
         6573.883     7.020314E-6
         6579.725     6.922795E-6
         6585.579     6.907478E-6
         6591.438     6.875074E-6
           6597.3     6.777871E-6
         6603.169     6.680752E-6
         6609.045     6.583775E-6
         6614.921     6.558712E-6
         6620.803     6.535898E-6
         6626.694     6.439319E-6
         6632.586     6.342918E-6
         6638.488     6.246540E-6
         6644.395     6.213968E-6
         6650.306     6.198886E-6
         6656.223     6.102809E-6
         6662.138     6.037846E-6
         6668.066     6.027332E-6
         6673.999     5.959466E-6
         6679.937     5.864018E-6
         6685.876     5.768872E-6
         6691.825     5.699859E-6
         6697.776     5.689645E-6
         6703.731     5.679434E-6
         6709.696     5.669214E-6
         6715.666     5.578847E-6
         6721.637     5.507570E-6
         6727.618     5.497615E-6
         6733.604     5.436895E-6
         6739.587     5.342896E-6
         6745.584     5.327307E-6
         6751.586     5.295319E-6
         6757.593     5.201667E-6
         6763.602     5.158458E-6
          6769.62     5.148828E-6
         6775.643     5.139292E-6
         6781.664     5.106675E-6
         6787.698     5.013598E-6
         6793.737     4.972380E-6
         6799.778     4.963027E-6
         6805.828     4.953673E-6
         6811.883     4.944318E-6
         6817.937     4.934975E-6
         6824.003     4.870859E-6
         6830.075     4.779718E-6
         6836.152     4.770636E-6
         6842.234     4.761553E-6
         6848.318     4.752475E-6
         6854.411     4.743396E-6
         6860.506     4.734314E-6
         6866.606     4.725159E-6
         6872.716     4.716042E-6
         6878.831     4.706975E-6
         6884.948     4.697918E-6
         6891.073     4.688856E-6
         6897.205     4.679796E-6
         6903.334     4.670703E-6
         6909.476     4.661559E-6
         6915.624     4.652503E-6
         6921.777     4.643453E-6
         6927.936     4.634408E-6
         6934.096     4.625433E-6
         6940.261     4.619929E-6
         6946.437     4.692181E-6
         6952.613     4.729806E-6
         6958.799     4.720516E-6
         6964.991     4.711306E-6
         6971.184     4.717586E-6
         6977.387     4.789232E-6
         6983.591     4.860588E-6
           6989.8     4.931698E-6
          6996.02     4.924609E-6
         7002.244     4.942196E-6
         7008.475     5.007916E-6
         7014.707     5.073138E-6
         7020.948     5.138001E-6
          7027.19     5.202521E-6
         7033.443     5.266757E-6
         7039.697     5.330621E-6
          7045.96     5.394043E-6
         7052.226     5.485177E-6
           7058.5     5.626849E-6
         7064.777     5.767648E-6
         7071.063     5.907749E-6
          7077.35     6.046995E-6
         7083.647     6.185546E-6
          7089.95     6.323323E-6
         7096.258     6.537825E-6
         7102.568     6.751657E-6
         7108.883     6.964317E-6
         7115.208     7.175950E-6
         7121.539     7.405215E-6
         7127.872     7.691479E-6
         7134.213     7.976447E-6
         7140.557     8.266480E-6
         7146.911     8.624938E-6
         7153.266     8.981300E-6
         7159.626     9.335791E-6
         7165.997     9.760349E-6
         7172.372     1.015880E-5
         7178.754     1.050761E-5
         7185.141     1.091526E-5
         7191.526     1.131685E-5
         7197.925     1.165957E-5
         7204.329     1.194952E-5
         7210.735     1.219611E-5
         7217.151     1.230884E-5
         7223.572     1.233781E-5
         7229.995     1.230044E-5
         7236.424     1.203990E-5
         7242.863     1.168132E-5
         7249.303     1.120146E-5
         7255.753     1.065768E-5
         7262.208     1.005818E-5
          7268.67     9.364773E-6
         7275.137     8.675127E-6
         7281.603     7.971581E-6
         7288.081     7.215690E-6
         7294.566     6.566493E-6
         7301.052     5.964199E-6
         7307.548     5.364583E-6
          7314.05     4.813270E-6
         7320.553     4.298595E-6
         7327.063     3.852456E-6
         7333.582     3.448005E-6
         7340.103     3.079406E-6
         7346.634     2.783069E-6
          7353.17     2.522963E-6
         7359.713     2.300965E-6
         7366.253     2.080440E-6
         7372.807     1.860757E-6
         7379.367     1.642212E-6
         7385.933     1.488765E-6
           7392.5     1.369884E-6
         7399.078     1.295172E-6
         7405.657     1.160513E-6
         7412.242     1.040584E-6
         7418.837     9.673478E-7
         7425.434     8.945561E-7
         7432.041     8.221015E-7
         7438.653     7.500395E-7
         7445.271     7.335790E-7
         7451.896     7.114825E-7
         7458.518     6.403021E-7
         7465.154     5.694055E-7
         7471.796     5.174683E-7
         7478.444     5.158462E-7
         7485.094     5.142275E-7
         7491.753     4.946363E-7
         7498.415     4.250059E-7
         7505.083     4.075302E-7
          7511.76     4.062549E-7
         7518.444     4.049810E-7
         7525.129     4.037089E-7
         7531.825     3.840790E-7
         7538.526     3.156595E-7
         7545.225     2.999244E-7
         7551.938     2.989730E-7
         7558.658     2.980228E-7
         7565.383     2.970731E-7
          7572.11     2.961249E-7
         7578.847     2.951770E-7
          7585.59     2.942303E-7
         7592.335     2.932850E-7
         7599.086     2.923406E-7
         7605.848     2.913963E-7
         7612.611     2.651759E-7
         7619.384     1.989540E-7
         7626.163     1.923797E-7
          7632.94     1.917534E-7
         7639.731     1.911270E-7
         7646.529     1.905013E-7
         7653.333     1.898762E-7
         7660.142     1.892516E-7
         7666.953     1.886284E-7
         7673.775     1.880051E-7
         7680.598     1.873829E-7
         7687.428     1.867614E-7
         7694.268     1.861403E-7
         7701.114     1.855197E-7
         7707.961     1.849003E-7
         7714.819     1.842811E-7
         7721.684     1.836627E-7
          7728.55     1.830453E-7
         7735.422     1.824285E-7
         7742.304     1.818121E-7
         7749.193     1.811965E-7
         7756.088     1.805817E-7
         7762.984     1.799678E-7
         7769.887     1.793547E-7
           7776.8     1.787420E-7
         7783.715     1.781305E-7
         7790.641     1.775193E-7
         7797.573     1.769088E-7
         7804.506     1.762996E-7
          7811.45     1.756907E-7
         7818.396     1.750828E-7
         7825.348     1.744760E-7
         7832.311     1.738695E-7
         7839.279     1.732638E-7
         7846.254     1.726591E-7
         7853.231     1.720554E-7
         7860.218     1.714521E-7
         7867.208     1.708502E-7
         7874.208     1.702487E-7
         7881.209     1.696484E-7
         7888.222     1.690487E-7
         7895.235     1.684503E-7
          7902.26     1.678523E-7
         7909.287     1.672555E-7
         7916.324     1.666595E-7
         7923.363     1.660646E-7
         7930.413     1.654701E-7
         7937.469     1.648768E-7
         7944.531     1.642845E-7
         7951.596     1.636934E-7
         7958.666     1.631034E-7
         7965.747     1.625140E-7
         7972.834     1.619255E-7
         7979.924     1.613381E-7
         7987.024     1.607519E-7
         7994.126     3.584204E-7
         8001.239     5.689878E-7
         8008.354     1.708182E-7
         8015.479     1.654500E-7
         8022.606     3.379190E-7
         8029.744     6.149630E-7
         8036.889     8.893211E-7
          8044.04     1.004871E-6
         8051.192     9.262301E-7
         8058.351     4.832805E-7
         8065.521     2.963536E-7
         8072.693     2.473610E-7
         8079.875     3.000807E-7
         8087.064     3.522655E-7
         8094.255     4.989167E-7
         8101.453     6.878314E-7
         8108.661     7.902135E-7
         8115.871     7.624978E-7
         8123.092     7.282241E-7
         8130.319     7.218786E-7
         8137.553     6.657689E-7
         8144.794     6.788609E-7
         8152.032     7.410716E-7
         8159.285     8.396203E-7
         8166.544     9.371110E-7
         8173.806     9.801838E-7
         8181.079     9.370555E-7
         8188.357     6.797897E-7
         8195.639     5.417580E-7
         8202.926     4.789524E-7
         8210.225     4.777055E-7
         8217.525     5.243033E-7
         8224.837     5.703993E-7
         8232.154     5.727645E-7
         8239.479     4.720430E-7
         8246.801     3.725338E-7
         8254.139     3.283070E-7
         8261.482     3.263478E-7
         8268.833     3.243917E-7
         8276.186     2.027722E-7
          8283.55     1.509500E-7
         8290.915     2.202758E-7
         8298.287     4.523363E-7
         8305.671     6.105299E-7
         8313.061     5.922913E-7
         8320.452     3.673355E-7
         8327.855     2.735892E-7
         8335.265     2.778722E-7
         8342.682     3.050188E-7
         8350.095     3.025422E-7
         8357.524     2.568434E-7
         8364.961     1.814087E-7
         8372.398     1.347390E-7
         8379.848     1.790778E-7
         8387.304     3.543291E-7
         8394.757     4.745181E-7
         8402.227     5.223910E-7
         8409.702     4.765916E-7
         8417.185     4.735115E-7
         8424.669     4.170748E-7
         8432.165     3.149159E-7
         8439.667     1.819329E-7
         8447.167     1.755640E-7
         8454.683     2.023778E-7
         8462.205     2.070625E-7
         8469.734     1.190974E-7
         8477.266     1.156689E-7
         8484.809     1.984979E-7
         8492.357     3.416239E-7
         8499.909     5.136775E-7
         8507.467     5.140611E-7
         8515.036     3.976711E-7
         8522.608     2.392842E-7
          8530.19     1.120103E-7
          8537.78     6.885746E-8
         8545.372     5.615414E-8
         8552.971     5.595757E-8
         8560.581     6.547936E-8
         8568.197     1.921929E-7
         8575.821     2.536647E-7
         8583.446     2.187619E-7
         8591.083     1.218122E-7
         8598.723     2.050129E-7
         8606.368     3.223802E-7
         8614.026     2.709676E-7
          8621.69     1.174063E-7
         8629.356     1.582848E-7
         8637.034     3.122341E-7
         8644.719     3.997016E-7
         8652.406     4.134022E-7
           8660.1     3.713840E-7
         8667.805     3.698135E-7
         8675.517     3.392140E-7
         8683.236     2.634135E-7
         8690.957     1.564491E-7
         8698.685     1.557607E-7
         8706.425     2.546958E-7
         8714.166     2.658685E-7
          8721.92     1.852249E-7
          8729.68     1.052434E-7
         8737.442     6.373278E-8
         8745.216     7.686215E-8
         8752.992     1.908121E-7
         8760.775     4.119229E-7
          8768.57     5.263737E-7
         8776.372     3.556122E-7
         8784.181     1.640773E-7
         8791.991     5.882919E-8
         8799.814     9.672013E-8
         8807.639     2.826125E-7
         8815.476     3.381998E-7
         8823.314     3.045799E-7
         8831.165     2.334798E-7
         8839.022     1.948714E-7
         8846.882     1.566492E-7
         8854.748     1.858018E-7
         8862.627     2.216322E-7
         8870.507     1.860984E-7
         8878.399     1.850524E-7
         8886.299     2.419502E-7
         8894.206     1.974678E-7
         8902.114     8.132670E-8
          8910.03     4.547667E-8
         8917.958     1.164516E-7
         8925.888     2.654770E-7
         8933.829     3.551397E-7
         8941.778     3.529540E-7
         8949.729     3.507582E-7
         8957.692     3.820108E-7
         8965.657     3.895111E-7
         8973.634     3.713215E-7
         8981.613     3.347694E-7
         8989.604     2.986134E-7
         8997.604     3.269429E-7
         9005.608     3.817911E-7
         9013.616     4.008270E-7
         9021.631     3.718478E-7
         9029.658     3.694029E-7
         9037.688     3.356039E-7
         9045.729     2.775822E-7
         9053.776     2.261417E-7
         9061.827     2.070230E-7
         9069.885     2.375426E-7
         9077.955     3.616503E-7
         9086.032     3.438763E-7
         9094.111     2.786616E-7
         9102.202     2.482081E-7
         9110.301     3.060293E-7
         9118.402     3.037359E-7
          9126.51     2.523754E-7
          9134.63     1.724035E-7
         9142.758     1.112948E-7
         9150.888     1.104179E-7
         9159.029     1.095362E-7
         9167.179     1.086501E-7
          9175.33     6.946899E-8
         9183.488     3.562213E-8
         9191.659     4.118311E-8
         9199.833     6.945822E-8
         9208.019     6.943791E-8
         9216.211     4.745499E-8
         9224.411     6.420171E-8
         9232.608     1.366771E-7
         9240.822     2.317070E-7
         9249.045     2.022764E-7
         9257.274     1.493950E-7
         9265.506     1.302099E-7
         9273.749     1.047669E-7
         9281.995     5.746141E-8
         9290.249     3.395346E-8
         9298.515     1.111477E-7
         9306.788     2.288185E-7
         9315.063     2.600835E-7
         9323.352     2.118916E-7
         9331.647     1.399536E-7
          9339.95     8.920157E-8
          9348.25     1.120896E-7
         9356.567     1.349133E-7
         9364.893     1.852197E-7
          9373.22     2.355264E-7
          9381.56     2.429580E-7
         9389.906     1.938985E-7
         9398.256     2.135271E-7
         9406.612     1.621052E-7
         9414.982     1.064978E-7
         9423.359     8.758968E-8
         9431.738     1.036417E-7
          9440.13     1.019189E-7
         9448.529     7.934869E-8
         9456.926     1.090290E-7
          9465.34     1.487317E-7
         9473.762     1.509257E-7
          9482.19     1.085821E-7
         9490.622     7.179419E-8
         9499.066     9.019201E-8
         9507.519     1.083257E-7
         9515.972     5.879479E-8
         9524.434     2.223439E-8
         9532.908     2.195369E-8
         9541.385     2.167356E-8
         9549.874     2.139365E-8
         9558.371     3.878896E-8
          9566.87     7.029833E-8
         9575.377     1.043328E-7
         9583.896     1.295710E-7
         9592.424     1.303068E-7
         9600.958     1.005035E-7
         9609.495     1.156934E-7
         9618.046     1.612848E-7
         9626.598     1.700375E-7
         9635.157     1.099480E-7
          9643.73     4.134105E-8
         9652.311     1.806698E-8
         9660.898     2.098951E-8
         9669.489     5.076597E-8
         9678.093     6.569030E-8
         9686.698     5.651903E-8
         9695.312     5.896742E-8
         9703.938     7.217722E-8
         9712.572     7.246427E-8
         9721.208     5.148922E-8
         9729.857     7.761974E-8
          9738.51     1.158826E-7
         9747.174     1.097696E-7
         9755.841     6.901780E-8
         9764.521     3.700378E-8
         9773.209     3.306989E-8
         9781.899     3.927008E-8
         9790.603     2.657737E-8
         9799.309     1.435747E-8
         9808.022     2.371254E-8
         9816.749     3.446885E-8
         9825.483     5.859957E-8
         9834.226     7.407515E-8
          9842.97     6.528933E-8
         9851.728     4.315541E-8
         9860.487     2.364562E-8
         9869.261     3.299121E-8
         9878.036     5.956887E-8
         9886.825     7.179722E-8
         9895.622     7.924952E-8
         9904.421     9.076339E-8
         9913.233     1.027537E-7
         9922.049     9.270916E-8
         9930.871     3.525841E-8
         9939.707     9.976384E-9
         9948.551     1.653037E-8
         9957.402     2.370901E-8
         9966.257     2.518341E-8
         9975.118     2.441286E-8
         9983.993     2.364436E-8
         9992.871     1.849968E-8
         10001.77     7.392786E-9
         10010.66     7.721224E-9
         10019.56     1.388834E-8
         10028.48     1.980382E-8
         10037.39     3.049500E-8
         10046.32     3.333375E-8
         10055.26     3.262211E-8
         10064.21     2.654717E-8
         10073.16     1.872820E-8
         10082.12     2.219573E-8
         10091.09     3.709394E-8
         10100.06     4.644642E-8
         10109.05     1.978693E-8
         10118.04     1.220083E-8
         10127.04     1.848199E-8
         10136.04     3.393874E-8
         10145.06     3.864156E-8
         10154.09     3.312197E-8
         10163.11     3.089356E-8
         10172.15     3.028243E-8
          10181.2     1.799235E-8
         10190.26     1.353163E-8
         10199.33     1.315330E-8
          10208.4     1.635776E-8
         10217.48     2.581650E-8
         10226.57     2.545276E-8
         10235.67     1.893458E-8
         10244.77     1.147985E-8
         10253.88     7.300021E-9
           10263.     1.024062E-8
         10272.13     1.925085E-8
         10281.27     2.427928E-8
         10290.41     9.544477E-9
         10299.56     9.200980E-9
         10308.73     1.917171E-8
          10317.9     2.437751E-8
         10327.08     2.650268E-8
         10336.26     2.456026E-8
         10345.45     2.122867E-8
         10354.66     1.810377E-8
         10363.87     1.607196E-8
         10373.09     1.329994E-8
         10382.31     8.342547E-9
         10391.55     9.155387E-9
         10400.79     1.548429E-8
         10410.05     1.954334E-8
          10419.3     1.533812E-8
         10428.57     1.150451E-8
         10437.85     9.204506E-9
         10447.13     1.027949E-8
         10456.43     9.478303E-9
         10465.72     5.624537E-9
         10475.03     3.854965E-9
         10484.35     5.348557E-9
         10493.68     5.742387E-9
         10503.02     3.991928E-9
         10512.35     3.910813E-9
         10521.71     5.549663E-9
         10531.07     4.681021E-9
         10540.43     3.947047E-9
          10549.8     5.277814E-9
         10559.19     6.543981E-9
         10568.58     7.125757E-9
         10577.99     8.743818E-9
         10587.39     7.419849E-9
         10596.81     5.795989E-9
         10606.24     5.232165E-9
         10615.67     3.651733E-9
         10625.12     1.847156E-9
         10634.56     1.759734E-9
         10644.02     3.061668E-9
         10653.49     3.803584E-9
         10662.97     3.005454E-9
         10672.45     2.557996E-9
         10681.94     3.877116E-9
         10691.45     4.657990E-9
         10700.96     4.941560E-9
         10710.47     4.746493E-9
           10720.     3.714524E-9
         10729.54     3.168259E-9
         10739.08     2.650728E-9
         10748.64     2.161461E-9
          10758.2     1.699934E-9
         10767.77     1.876354E-9
         10777.34     2.729880E-9
         10786.93     3.683274E-9
         10796.53     4.101934E-9
         10806.12     3.443149E-9
         10815.74     2.931837E-9
         10825.36     3.151692E-9
         10834.99     2.852709E-9
         10844.63     2.301944E-9
         10854.28     2.321499E-9
         10863.94     2.473680E-9
         10873.58     2.694405E-9
         10883.27     2.797635E-9
         10892.95     2.374545E-9
         10902.63     1.836683E-9
         10912.33     1.295171E-9
         10922.04    7.783612E-10
         10931.75    8.637347E-10
         10941.47     1.411094E-9
         10951.21     1.504373E-9
         10960.95     1.707128E-9
         10970.71     1.862754E-9
         10980.46     1.863626E-9
         10990.22     1.831728E-9
           11000.     1.135843E-9
