#  Table wf4f791wsys.tab  Mon 12:22:53 02-Jun-97

#      WAVELENGTH      THROUGHPUT
#       angstroms                

            1850.     2.532377E-7
         1851.651     2.183624E-7
         1853.301     1.831730E-7
         1854.956     1.475657E-7
         1856.611     1.116542E-7
         1858.267     7.538677E-8
         1859.925     3.873992E-8
         1861.584     5.630143E-8
         1863.246     7.663213E-8
         1864.909     9.716209E-8
         1866.572     1.178771E-7
         1868.237     1.387932E-7
         1869.904     1.599223E-7
         1871.573     2.331271E-7
         1873.242     3.101877E-7
         1874.913     3.879952E-7
         1876.585     4.665591E-7
          1878.26     5.459416E-7
         1879.937     6.258420E-7
         1881.613     6.958636E-7
         1883.292     7.660642E-7
         1884.973     8.368858E-7
         1886.654     9.082479E-7
         1888.338     9.802412E-7
         1890.023     1.053174E-6
         1891.709     1.152408E-6
         1893.396     1.252470E-6
         1895.086     1.353416E-6
         1896.775     1.455064E-6
         1898.469     1.557734E-6
         1900.163     1.639319E-6
         1901.857     1.515925E-6
         1903.555     1.391264E-6
         1905.254     1.265480E-6
         1906.953     1.138662E-6
         1908.655     1.010643E-6
         1910.357     8.813744E-7
         1912.061     7.502003E-7
         1913.768     6.177940E-7
         1915.476     4.842171E-7
         1917.184     3.495526E-7
         1918.894     2.137108E-7
         1920.606     1.180690E-7
          1922.32     9.747545E-8
         1924.035     7.670093E-8
         1925.752     5.575529E-8
          1927.47     3.461559E-8
         1929.189     1.330378E-8
          1930.91     1.797302E-8
         1932.634     4.611444E-8
         1934.358     7.449843E-8
         1936.084     1.031075E-7
         1937.811     1.319644E-7
          1939.54     1.610846E-7
          1941.27     2.004289E-7
         1943.003     2.437727E-7
         1944.737     2.874871E-7
          1946.47     3.315174E-7
         1948.207     3.759735E-7
         1949.947     4.208290E-7
         1951.685     3.609059E-7
         1953.427     2.970580E-7
         1955.171     2.326504E-7
         1956.913     1.677590E-7
          1958.66     1.022229E-7
         1960.408     5.316932E-8
         1962.157     5.996545E-8
         1963.908     6.682312E-8
         1965.658     7.372961E-8
         1967.413     8.070192E-8
         1969.169     8.773257E-8
         1970.925     8.769074E-8
         1972.684     8.120791E-8
         1974.444     7.467087E-8
         1976.205     6.807539E-8
         1977.969     6.141345E-8
         1979.734     5.470050E-8
           1981.5     4.635772E-8
         1983.268     3.765620E-8
         1985.037     2.888381E-8
         1986.809     2.003062E-8
         1988.581     1.110678E-8
         1990.355     4.545512E-9
         1992.131     7.732648E-9
         1993.908     1.094678E-8
         1995.688     1.419199E-8
         1997.467     1.745836E-8
          1999.25     2.075600E-8
         2001.034     2.520192E-8
         2002.818     3.050102E-8
         2004.606     3.586150E-8
         2006.396     4.127089E-8
         2008.184     4.672526E-8
         2009.976     5.223864E-8
         2011.769     5.021257E-8
         2013.565     4.806164E-8
         2015.362     4.588787E-8
         2017.158     4.369399E-8
         2018.958     4.147452E-8
          2020.76     3.829647E-8
         2022.563     3.380072E-8
         2024.368     2.925707E-8
         2026.173     2.467145E-8
         2027.982     2.003745E-8
         2029.791     1.536077E-8
         2031.602     1.302734E-8
         2033.414     1.098629E-8
         2035.228     8.925265E-9
         2037.044     6.842910E-9
         2038.861     4.741646E-9
         2040.681     3.597234E-9
         2042.502     4.086473E-9
         2044.324     4.579977E-9
         2046.147     5.077994E-9
         2047.974     5.580914E-9
           2049.8     6.088123E-9
          2051.63     7.086631E-9
         2053.461     8.154262E-9
         2055.291     9.230413E-9
         2057.125     1.031757E-8
         2058.961     1.141464E-8
         2060.798     1.157671E-8
         2062.637     1.050395E-8
         2064.477     9.421721E-9
         2066.318     8.329411E-9
         2068.164     7.225506E-9
         2070.007     6.122220E-9
         2071.855     7.328342E-9
         2073.704     8.545030E-9
         2075.553     9.771686E-9
         2077.405     1.100899E-8
         2079.259     1.225814E-8
         2081.113     2.487998E-8
         2082.971     4.522817E-8
         2084.829     6.574134E-8
         2086.688     8.643087E-8
          2088.55     1.073140E-7
         2090.414     1.223937E-7
         2092.279     1.165646E-7
         2094.145     1.106843E-7
         2096.014     1.047464E-7
         2097.885     9.875595E-8
         2099.756     9.271588E-8
          2101.63     7.936062E-8
         2103.503     6.481711E-8
         2105.381     5.013572E-8
          2107.26     3.532912E-8
         2109.139     2.040836E-8
         2111.022     2.111704E-8
         2112.906     3.516557E-8
         2114.789     4.930824E-8
         2116.677     6.358221E-8
         2118.564     7.796033E-8
         2120.455     8.602758E-8
         2122.348     7.378389E-8
         2124.241     6.145365E-8
         2126.135     4.902539E-8
         2128.033     3.649381E-8
         2129.932     2.386326E-8
         2131.832     2.226047E-8
         2133.734     2.105723E-8
         2135.637     1.984489E-8
         2137.544     1.862167E-8
          2139.45     1.739460E-8
         2141.359     1.544831E-8
          2143.27     1.319680E-8
         2145.182     1.092907E-8
         2147.096     8.642718E-9
         2149.011     6.340283E-9
         2150.929     6.568457E-9
         2152.848     9.520246E-9
         2154.768     1.249322E-8
         2156.692     1.549130E-8
         2158.615     1.850503E-8
         2160.541     2.184374E-8
         2162.469     2.597383E-8
         2164.397     3.012646E-8
          2166.33     3.431491E-8
         2168.263     3.852931E-8
         2170.196     4.165717E-8
         2172.133     3.493857E-8
          2174.07     2.818208E-8
         2176.011     2.137732E-8
         2177.953     1.452922E-8
         2179.895     7.642782E-9
          2181.84     1.842499E-8
         2183.787     3.028950E-8
         2185.735     4.221730E-8
         2187.686     5.422065E-8
         2189.637     6.628627E-8
          2191.59     6.467968E-8
         2193.546     5.991142E-8
         2195.503     5.511784E-8
         2197.462     5.030067E-8
         2199.423     4.545379E-8
         2201.385     5.120893E-8
         2203.348     6.152710E-8
         2205.315     7.201648E-8
         2207.283     8.267031E-8
         2209.252     9.348268E-8
         2211.222     8.789696E-8
         2213.196     7.197652E-8
          2215.17     5.580934E-8
         2217.147     3.937012E-8
         2219.125     2.266943E-8
         2221.104     1.432144E-8
         2223.086     1.270712E-8
         2225.071     1.106613E-8
         2227.055     9.402430E-9
         2229.042     7.710789E-9
         2231.031     6.766223E-9
         2233.021     6.530418E-9
         2235.015     6.290347E-9
         2237.008     6.046575E-9
         2239.003     5.798763E-9
         2241.002     7.108066E-9
         2242.999     9.996505E-9
         2245.002     1.293000E-8
         2247.005     1.590020E-8
         2249.009     1.891084E-8
         2251.016     2.102534E-8
         2253.024     2.224526E-8
         2255.033     2.348003E-8
         2257.046     2.473063E-8
         2259.061     2.599622E-8
         2261.075     2.441724E-8
         2263.092     2.030168E-8
         2265.112     1.612855E-8
         2267.134     1.190005E-8
         2269.156     7.619076E-9
         2271.181     6.128362E-9
         2273.207     6.667771E-9
         2275.234     7.213567E-9
         2277.266     7.766443E-9
         2279.296     8.324630E-9
          2281.33     1.041010E-8
         2283.366     1.332962E-8
         2285.402     1.628041E-8
         2287.441     1.926971E-8
         2289.483     2.229377E-8
         2291.525     2.763069E-8
          2293.57     3.381113E-8
         2295.615     4.005457E-8
         2297.663     4.638963E-8
         2299.715     5.280722E-8
         2301.765     5.219447E-8
          2303.82     5.041758E-8
         2305.876     4.861653E-8
         2307.932     4.679229E-8
         2309.992     4.494235E-8
         2312.051     3.795863E-8
         2314.116     3.085768E-8
          2316.18     2.367938E-8
         2318.246     1.641671E-8
         2320.315     1.051172E-8
         2322.385     1.265886E-8
         2324.457     1.483155E-8
         2326.531     1.702708E-8
         2328.606     1.924708E-8
         2330.685     1.983128E-8
         2332.764     1.702104E-8
         2334.845     1.417798E-8
         2336.927     1.130264E-8
         2339.012     8.394525E-9
         2341.101     1.291998E-8
         2343.188     2.422640E-8
         2345.279     3.565733E-8
         2347.372     4.721872E-8
         2349.467     5.890314E-8
         2351.562     5.649217E-8
         2353.661     4.916941E-8
         2355.759     4.177669E-8
         2357.862     3.429396E-8
         2359.966     2.673113E-8
         2362.071     2.307636E-8
         2364.179     1.944669E-8
         2366.288     1.578111E-8
         2368.398     1.207697E-8
         2370.512     1.001628E-8
         2372.628     1.323302E-8
         2374.744     1.647954E-8
         2376.863     1.976008E-8
         2378.983     2.307099E-8
         2381.105     2.284293E-8
          2383.23     1.930726E-8
         2385.357     1.573661E-8
         2387.485     1.213251E-8
         2389.615     8.493198E-9
         2391.747     8.033931E-9
         2393.881     8.283530E-9
         2396.017     8.535382E-9
         2398.154     8.789174E-9
         2400.293     9.298294E-9
         2402.435     1.141477E-8
          2404.58     1.355071E-8
         2406.724     1.570447E-8
         2408.872     1.787881E-8
         2411.022     2.065536E-8
         2413.171     2.409815E-8
         2415.326     2.757749E-8
         2417.479     3.108048E-8
         2419.637     3.461873E-8
         2421.796     3.104750E-8
         2423.957     2.599725E-8
          2426.12     2.089932E-8
         2428.284     1.575988E-8
         2430.451     1.246061E-8
         2432.619     1.635330E-8
         2434.789     2.027830E-8
         2436.962     2.423886E-8
         2439.136     2.823200E-8
         2441.312     3.628610E-8
          2443.49     4.706938E-8
          2445.67     5.794754E-8
         2447.853     6.891609E-8
         2450.036     7.952853E-8
         2452.222     6.432273E-8
         2454.409     4.899110E-8
           2456.6     3.352282E-8
         2458.792     1.792939E-8
         2460.985     1.970524E-8
          2463.18     4.303493E-8
         2465.379     6.656666E-8
         2467.579     9.028295E-8
         2469.778     1.141578E-7
         2471.983     1.055304E-7
          2474.19     9.315085E-8
         2476.396     8.069355E-8
         2478.606     6.812090E-8
         2480.817     5.605443E-8
         2483.029     4.491782E-8
         2485.247     3.367834E-8
         2487.462     2.237160E-8
         2489.682     1.096251E-8
         2491.904     9.764896E-9
         2494.125     1.028412E-8
         2496.353     1.080813E-8
         2498.579     1.133535E-8
         2500.808     1.232455E-8
          2503.04     1.413089E-8
         2505.272     1.594967E-8
         2507.509     1.778353E-8
         2509.745     1.962972E-8
         2511.985     2.424203E-8
         2514.225     2.924119E-8
         2516.468     3.427873E-8
         2518.714     3.935700E-8
         2520.962     3.963214E-8
          2523.21     3.341125E-8
         2525.462     2.713798E-8
         2527.715     2.082033E-8
         2529.971     1.444989E-8
         2532.229     1.497339E-8
         2534.486     1.559153E-8
         2536.748     1.621484E-8
          2539.01     1.681482E-8
         2541.277     1.775437E-8
         2543.545     1.896179E-8
         2545.813     2.017310E-8
         2548.084     2.138893E-8
         2550.358     2.277537E-8
         2552.635     2.505458E-8
         2554.911     2.734076E-8
         2557.191     2.963731E-8
         2559.471     3.193977E-8
         2561.755     4.136150E-8
         2564.042     5.296875E-8
         2566.329     6.461460E-8
         2568.619     7.631132E-8
         2570.908     8.152596E-8
         2573.205     7.682537E-8
           2575.5     7.211184E-8
         2577.797     6.737794E-8
         2580.097     6.233844E-8
         2582.399     5.085002E-8
         2584.704     3.930689E-8
          2587.01     2.771898E-8
         2589.318     1.609017E-8
         2591.629     1.312517E-8
          2593.94     1.380719E-8
         2596.254     1.449167E-8
         2598.573     1.517961E-8
         2600.889     1.541913E-8
          2603.21     1.493490E-8
         2605.532     1.444884E-8
         2607.856     1.396061E-8
         2610.185     1.415426E-8
         2612.512     2.229647E-8
         2614.843     3.048071E-8
         2617.177     3.869829E-8
          2619.51     4.693876E-8
         2621.849     4.417259E-8
         2624.188     3.846431E-8
         2626.528     3.273242E-8
         2628.873     2.697284E-8
         2631.217     2.369967E-8
         2633.566     2.273918E-8
         2635.916     2.177446E-8
         2638.267     2.080603E-8
          2640.62     1.952222E-8
         2642.977     1.736045E-8
         2645.334     1.519076E-8
         2647.695     1.301072E-8
         2650.057     1.091643E-8
         2652.422     1.261477E-8
         2654.788     1.431883E-8
         2657.157     1.603083E-8
         2659.526     1.774760E-8
         2661.899     3.597806E-8
         2664.275     5.841472E-8
         2666.652     8.093008E-8
         2669.031     1.035492E-7
         2671.412     9.849041E-8
         2673.796     7.430929E-8
         2676.181     5.004447E-8
          2678.57     2.566409E-8
          2680.96     2.171612E-8
          2683.35     4.838428E-8
         2685.746     7.520851E-8
          2688.14     1.020927E-7
          2690.54     1.214027E-7
         2692.941     1.141308E-7
         2695.343     1.068313E-7
         2697.748     9.949670E-8
         2700.153     9.172731E-8
         2702.563     7.779967E-8
         2704.975     6.377204E-8
         2707.387     4.965135E-8
         2709.804     3.541875E-8
         2712.222     3.259692E-8
         2714.642     3.077496E-8
         2717.063     2.893961E-8
         2719.486     2.709046E-8
         2721.915     2.741525E-8
         2724.343     2.833051E-8
         2726.772     2.925176E-8
         2729.205     3.017901E-8
          2731.64     3.180111E-8
         2734.078     3.376918E-8
         2736.517     3.574939E-8
         2738.958     3.774275E-8
         2741.402     3.549645E-8
         2743.849     3.005907E-8
         2746.296     2.458655E-8
         2748.747     1.907171E-8
         2751.198     1.911363E-8
         2753.653     2.501111E-8
         2756.111     3.092248E-8
         2758.569     3.684424E-8
         2761.031     3.765164E-8
         2763.495     3.132570E-8
         2765.958     2.499250E-8
         2768.427     1.863694E-8
         2770.898     1.498880E-8
         2773.369     1.610891E-8
         2775.844     1.723226E-8
          2778.32     1.835754E-8
         2780.799     1.982371E-8
          2783.28     2.200673E-8
         2785.764     2.419494E-8
         2788.249     2.638662E-8
         2790.736     2.842259E-8
         2793.227     3.008080E-8
          2795.72     3.174269E-8
         2798.213     3.340730E-8
         2800.709     3.885645E-8
         2803.209     5.386541E-8
         2805.709     6.889849E-8
         2808.213     8.397495E-8
         2810.718     8.914899E-8
         2813.226     6.957549E-8
         2815.736     4.997128E-8
         2818.247     3.032488E-8
         2820.764     2.084153E-8
         2823.278     3.482177E-8
         2825.798     4.884907E-8
          2828.32     6.290581E-8
         2830.843     7.466164E-8
         2833.369     8.181021E-8
         2835.898     8.897425E-8
         2838.426     9.614404E-8
         2840.959     9.215242E-8
         2843.495     6.977087E-8
         2846.031     4.735711E-8
         2848.571     2.488087E-8
         2851.112     1.547418E-8
         2853.655     2.291132E-8
         2856.202     3.036754E-8
         2858.751     3.783862E-8
         2861.301     3.770961E-8
         2863.853     3.025950E-8
         2866.407     2.279408E-8
         2868.965     1.530905E-8
         2871.526     1.452283E-8
         2874.087     1.829107E-8
         2876.652     2.206936E-8
         2879.218     2.585232E-8
         2881.788     2.463140E-8
         2884.358     2.121338E-8
         2886.931     1.778858E-8
         2889.507     1.435534E-8
         2892.084     1.618602E-8
         2894.666     1.926941E-8
         2897.248     2.235702E-8
         2899.832     2.545004E-8
         2902.421     2.240420E-8
          2905.01     1.894100E-8
         2907.601     1.548355E-8
         2910.198     1.233533E-8
          2912.79     1.292148E-8
         2915.392     1.350796E-8
         2917.992     1.409256E-8
         2920.594     1.470239E-8
         2923.203     1.540099E-8
         2925.807     1.609653E-8
          2928.42     1.679234E-8
         2931.033     1.844578E-8
         2933.646     2.155906E-8
         2936.266     2.467181E-8
         2938.885     2.777443E-8
         2941.506     3.124227E-8
         2944.131     3.498014E-8
         2946.757     3.870814E-8
         2949.387     4.243071E-8
         2952.018     3.719352E-8
         2954.653     2.924678E-8
          2957.29     2.131601E-8
         2959.926     1.341081E-8
         2962.567     2.882778E-8
          2965.21     4.487752E-8
         2967.856     6.090116E-8
         2970.505     7.154676E-8
         2973.155     5.950424E-8
         2975.808     4.747922E-8
         2978.461     3.549506E-8
         2981.121     2.784250E-8
          2983.78     2.614998E-8
         2986.441     2.446101E-8
         2989.104     2.277576E-8
         2991.772     2.618157E-8
         2994.442     3.214778E-8
         2997.113     3.809711E-8
         2999.788     4.403654E-8
         3002.464     3.767209E-8
         3005.142     3.026730E-8
         3007.826     2.286999E-8
         3010.507     1.716799E-8
         3013.194     1.861507E-8
         3015.883     2.005861E-8
         3018.573     2.149768E-8
         3021.267     2.207969E-8
          3023.96     2.169875E-8
          3026.66     2.131788E-8
          3029.36     2.093823E-8
         3032.062     3.571562E-8
          3034.77     5.518046E-8
         3037.475     7.456156E-8
         3040.186     9.109164E-8
         3042.897     6.928762E-8
         3045.612     4.753608E-8
         3048.332     2.581204E-8
         3051.051     1.309544E-8
         3053.772     1.457397E-8
         3056.497     1.604961E-8
         3059.222     1.751932E-8
         3061.954     3.629215E-8
         3064.685     6.186811E-8
         3067.418     8.737827E-8
         3070.156     1.103999E-7
         3072.896     9.312369E-8
         3075.637     7.590227E-8
          3078.38     5.872822E-8
         3081.126     4.854767E-8
         3083.877     4.838209E-8
         3086.628     4.821677E-8
         3089.381     4.805150E-8
         3092.137     6.244494E-8
         3094.895     8.101042E-8
         3097.659     9.954587E-8
         3100.422     1.108232E-7
         3103.187     8.211518E-8
         3105.955     5.329694E-8
         3108.729     2.433239E-8
         3111.501     1.829002E-8
         3114.277     3.174953E-8
         3117.056     4.526879E-8
         3119.836     5.883013E-8
         3122.621     6.095517E-8
         3125.406     6.236698E-8
         3128.195     6.378473E-8
         3130.985     5.953195E-8
         3133.778     4.484356E-8
         3136.575     3.009002E-8
         3139.373     1.528919E-8
         3142.175     1.181162E-8
         3144.979     1.161491E-8
         3147.784     1.141752E-8
         3150.592     1.140602E-8
         3153.405     1.209638E-8
         3156.218     1.278843E-8
         3159.035     1.348356E-8
         3161.851     1.368441E-8
         3164.674     1.362653E-8
         3167.497     1.356845E-8
         3170.322     1.517355E-8
         3173.152     2.974303E-8
         3175.982     4.436010E-8
         3178.816     5.904131E-8
         3181.652     5.664942E-8
          3184.49     4.195320E-8
         3187.333     2.718051E-8
         3190.175     1.361928E-8
         3193.022     1.899682E-8
          3195.87     2.439194E-8
         3198.722     2.981069E-8
         3201.577     7.333712E-8
         3204.433     1.479256E-7
         3207.291     2.227966E-7
         3210.151     2.897272E-7
         3213.018     2.092688E-7
         3215.884     1.286059E-7
         3218.752     4.762806E-8
         3221.623     1.363542E-8
         3224.499     1.594667E-8
         3227.376     1.826683E-8
         3230.255     2.035581E-8
         3233.136     1.999377E-8
          3236.02     1.963027E-8
         3238.908     1.926508E-8
         3241.799     3.727527E-8
          3244.69     6.651666E-8
         3247.584     9.587439E-8
         3250.485     1.159569E-7
         3253.384     8.907642E-8
         3256.286     6.209122E-8
         3259.192     3.498502E-8
         3262.097     4.731366E-8
          3265.01     7.500386E-8
         3267.922     1.027642E-7
         3270.837     1.141142E-7
         3273.758     8.437807E-8
         3276.675     5.460274E-8
         3279.601     2.463587E-8
         3282.526     1.841723E-8
         3285.454     1.594830E-8
         3288.388     1.346682E-8
         3291.319     1.210840E-8
         3294.257     1.212652E-8
         3297.195     1.214465E-8
         3300.137     1.222252E-8
         3303.083     1.352184E-8
         3306.029     1.482544E-8
         3308.979     1.613473E-8
         3311.931     5.011591E-8
         3314.885     1.015369E-7
         3317.844     1.531887E-7
         3320.803     1.805670E-7
         3323.767     1.422231E-7
         3326.731     1.037507E-7
           3329.7     6.510169E-8
          3332.67     5.651783E-8
         3335.643     5.129451E-8
         3338.622     4.604439E-8
         3341.599     4.190400E-8
          3344.58     3.871802E-8
         3347.563     3.551958E-8
         3350.551     3.346554E-8
         3353.541     3.654324E-8
         3356.532     3.963121E-8
         3359.528     4.273299E-8
         3362.524     5.463449E-8
         3365.525     6.823854E-8
         3368.527     8.188837E-8
         3371.532     8.166737E-8
         3374.541     6.801740E-8
         3377.551     5.432071E-8
         3380.565     4.765039E-8
         3383.582     7.174737E-8
         3386.598     9.591064E-8
         3389.623     1.202149E-7
         3392.646     1.509333E-7
         3395.672     1.826840E-7
         3398.705     2.145997E-7
         3401.732     1.933864E-7
          3404.77     1.320781E-7
         3407.807     7.059767E-8
         3410.847     2.559461E-8
         3413.893     2.382941E-8
         3416.938     2.205919E-8
         3419.985     2.028162E-8
         3423.038     8.796916E-8
         3426.089     1.561837E-7
         3429.148     2.247992E-7
         3432.207     2.016860E-7
         3435.268     1.429228E-7
         3438.334     8.388277E-8
         3441.401     4.869134E-8
         3444.473     4.202262E-8
         3447.545     3.533137E-8
         3450.622     4.133032E-8
         3453.701     9.773784E-8
         3456.782     1.543357E-7
         3459.865     2.111692E-7
         3462.951     1.802559E-7
         3466.042     1.451606E-7
         3469.135     1.099207E-7
         3472.229     9.539586E-8
         3475.326     8.891696E-8
         3478.426     8.241095E-8
         3481.532     6.931237E-8
         3484.638     4.942986E-8
         3487.746     2.946607E-8
         3490.859     1.646328E-8
         3493.972     2.197959E-8
         3497.091     2.752184E-8
          3500.21     3.301643E-8
         3503.334     3.759161E-8
          3506.46     4.218619E-8
         3509.586     4.679445E-8
          3512.72     7.210048E-8
         3515.852     1.006166E-7
         3518.989     1.292862E-7
          3522.13     1.306141E-7
         3525.271     1.188870E-7
         3528.418     1.071025E-7
         3531.563     1.084032E-7
         3534.717     1.230542E-7
          3537.87     1.377502E-7
         3541.025     1.345294E-7
         3544.188     9.378263E-8
         3547.349     5.291219E-8
         3550.513     1.907765E-8
         3553.679     2.249832E-8
         3556.849     2.593383E-8
         3560.026     2.936783E-8
         3563.201     3.027026E-8
         3566.379     3.117646E-8
         3569.562     3.208713E-8
         3572.746     2.859021E-8
         3575.935     2.436975E-8
         3579.124     2.013353E-8
         3582.316     1.846192E-8
         3585.513     1.776200E-8
         3588.714     1.705884E-8
         3591.915     1.965649E-8
         3595.118     2.449073E-8
         3598.325     2.934664E-8
         3601.538     2.924988E-8
         3604.751     2.372250E-8
         3607.966     1.817082E-8
         3611.184     2.291447E-8
         3614.409     4.548864E-8
         3617.633     6.813370E-8
         3620.859     8.548592E-8
         3624.089     8.802461E-8
         3627.322     9.057406E-8
         3630.561     9.452343E-8
         3633.799     1.051139E-7
          3637.04     1.157513E-7
         3640.286     1.276065E-7
         3643.533     1.515858E-7
         3646.785     1.756844E-7
         3650.038     1.989039E-7
         3653.295     1.388968E-7
         3656.556     7.861453E-8
         3659.815     1.814244E-8
         3663.082     1.847044E-8
         3666.353     2.247954E-8
         3669.621     2.649935E-8
         3672.896     2.405470E-8
         3676.172     2.074962E-8
         3679.451     1.742980E-8
         3682.737     1.912789E-8
         3686.022     2.184361E-8
         3689.309     2.457126E-8
           3692.6     2.301698E-8
         3695.896     2.031039E-8
         3699.194     1.759130E-8
         3702.494     1.924934E-8
         3705.798     2.233850E-8
         3709.101     2.543760E-8
         3712.412     6.089308E-8
         3715.725     1.085951E-7
         3719.039     1.564802E-7
         3722.358     1.489783E-7
         3725.678     1.187376E-7
         3729.004     8.833987E-8
          3732.33     6.840535E-8
         3735.659     5.291685E-8
         3738.995     3.733880E-8
          3742.33     3.902804E-8
         3745.668     4.821627E-8
         3749.009     5.744570E-8
         3752.354     6.508252E-8
         3755.703     7.206101E-8
         3759.053     7.906655E-8
         3762.408     6.554465E-8
         3765.764     4.386824E-8
         3769.125     2.208154E-8
         3772.487     1.723994E-8
         3775.852     1.838483E-8
         3779.222     1.953564E-8
         3782.594     1.876395E-8
         3785.968     1.740972E-8
         3789.345     1.604922E-8
         3792.725     2.624062E-8
         3796.112     3.927802E-8
         3799.498     5.235844E-8
         3802.887     5.259312E-8
         3806.279     5.057895E-8
         3809.676     4.855406E-8
         3813.076     3.845495E-8
         3816.477     2.746435E-8
         3819.881     1.642454E-8
          3823.29     1.606592E-8
           3826.7     1.609464E-8
         3830.116     1.612345E-8
         3833.532     1.615229E-8
         3836.951     1.618118E-8
         3840.378     1.657553E-8
         3843.803     1.992489E-8
         3847.232     2.328902E-8
         3850.663     2.652198E-8
         3854.102     2.916139E-8
          3857.54     3.180932E-8
          3860.98     3.236032E-8
         3864.426     2.760427E-8
         3867.875     2.282689E-8
         3871.325     3.118809E-8
         3874.778     6.074465E-8
         3878.234     9.043051E-8
         3881.695     9.467921E-8
         3885.157     7.223880E-8
         3888.625     4.968433E-8
         3892.094     3.571302E-8
         3895.565     2.738923E-8
         3899.044     1.901791E-8
         3902.521     1.953818E-8
         3906.002     2.345106E-8
         3909.489     2.738326E-8
         3912.975     2.837132E-8
         3916.468     2.885398E-8
         3919.961     2.933830E-8
         3923.457     3.613741E-8
         3926.961     4.304609E-8
         3930.462     4.908844E-8
         3933.969     4.932902E-8
         3937.478     4.957030E-8
         3940.992     4.652107E-8
          3944.51     3.507338E-8
         3948.028     2.358364E-8
          3951.55     1.713961E-8
         3955.074     1.716850E-8
         3958.606     1.719748E-8
         3962.137     2.306930E-8
         3965.671     3.278649E-8
          3969.21     4.255070E-8
          3972.75     6.468319E-8
         3976.296     9.047534E-8
         3979.843     1.163599E-7
         3983.395     8.877698E-8
          3986.95     5.858985E-8
         3990.504     3.185575E-8
         3994.065     2.649811E-8
          3997.63     2.111783E-8
         4001.196     1.884558E-8
         4004.767     2.277166E-8
         4008.339     2.669752E-8
         4011.914     2.641522E-8
         4015.494     2.247282E-8
         4019.078     1.852834E-8
         4022.663     2.221558E-8
         4026.251     2.854882E-8
         4029.844     3.488854E-8
         4033.441     2.908093E-8
         4037.039     2.272415E-8
         4040.639     1.831464E-8
         4044.243     2.294290E-8
         4047.855     2.757901E-8
         4051.465     4.074908E-8
         4055.079     6.643205E-8
         4058.698     9.214019E-8
         4062.316     8.355386E-8
         4065.944     5.563984E-8
          4069.57     2.775017E-8
           4073.2     3.638455E-8
         4076.838     4.994628E-8
         4080.472     5.963800E-8
         4084.114     4.349791E-8
         4087.756     2.736217E-8
         4091.405     1.889524E-8
         4095.056     2.270598E-8
         4098.708     2.651512E-8
         4102.367     2.668652E-8
         4106.026     2.487088E-8
         4109.688     2.305498E-8
         4113.356     2.528181E-8
         4117.025     2.788368E-8
         4120.699     2.910840E-8
         4124.375     2.446499E-8
         4128.056     1.981762E-8
         4131.738     1.736124E-8
         4135.423     1.735471E-8
         4139.116     1.734815E-8
         4142.808     1.734155E-8
         4146.503     1.733493E-8
         4150.201     1.732827E-8
         4153.903     1.732116E-8
         4157.613     1.731404E-8
         4161.321     1.989376E-8
         4165.033     2.714886E-8
         4168.748     3.440459E-8
         4172.466     4.205680E-8
         4176.192     4.991988E-8
         4179.917     5.777403E-8
         4183.645     6.170515E-8
         4187.379     6.554953E-8
         4191.116     6.592268E-8
         4194.854     5.814576E-8
         4198.596     5.036874E-8
         4202.343     4.428433E-8
         4206.094     3.920568E-8
         4209.845     3.411656E-8
         4213.603     3.253134E-8
         4217.358     3.109523E-8
         4221.123     3.479729E-8
          4224.89     5.063350E-8
         4228.658     6.650374E-8
         4232.432     5.886404E-8
         4236.208     3.819317E-8
         4239.988     1.745638E-8
          4243.77     1.740707E-8
         4247.555     1.742217E-8
         4251.348     1.743729E-8
          4255.14     1.745239E-8
         4258.936     1.746751E-8
         4262.734     1.748247E-8
         4266.537     1.749737E-8
         4270.347     1.751232E-8
         4274.155     1.752724E-8
         4277.968     1.754220E-8
         4281.786     1.755705E-8
         4285.605     1.757179E-8
          4289.43     1.758655E-8
         4293.256     1.760129E-8
         4297.085     1.761604E-8
         4300.922     1.763078E-8
         4304.759     1.764534E-8
         4308.598     1.765991E-8
         4312.441     1.767449E-8
          4316.29     1.768908E-8
         4320.142     1.770369E-8
         4323.996     1.771828E-8
         4327.854     1.773290E-8
         4331.715     1.774751E-8
         4335.581     1.776213E-8
         4339.448     1.777676E-8
         4343.318     1.779120E-8
         4347.195     1.780563E-8
         4351.072     1.782001E-8
         4354.956     1.783425E-8
          4358.84     1.784849E-8
         4362.728     1.786288E-8
         4366.624     1.787736E-8
         4370.519     1.789180E-8
         4374.417     1.790606E-8
         4378.318     1.792033E-8
         4382.229     4.946885E-8
         4386.137     1.048616E-7
         4390.049     1.630397E-7
         4393.967     4.293353E-7
         4397.889     6.963142E-7
         4401.812     1.019051E-6
         4405.738     1.407180E-6
         4409.667     1.796264E-6
         4413.603     1.956594E-6
         4417.542     2.096057E-6
         4421.482     2.277485E-6
         4425.426     2.528601E-6
         4429.373     2.780294E-6
         4433.329     2.722576E-6
         4437.283     2.606293E-6
         4441.241     2.436203E-6
         4445.205     2.148060E-6
         4449.169     1.859392E-6
          4453.14     1.576149E-6
         4457.112     1.294033E-6
         4461.088     1.009057E-6
         4465.069     7.174182E-7
         4469.052     4.252578E-7
         4473.041     2.740668E-7
          4477.03     1.669005E-7
         4481.028     8.147862E-8
         4485.022     5.991429E-8
         4489.025     3.826919E-8
         4493.032     3.167587E-8
         4497.039     2.993104E-8
         4501.053     2.758609E-8
         4505.067     2.354589E-8
         4509.086     1.946877E-8
         4513.107     1.907025E-8
         4517.136     1.976617E-8
         4521.167     2.010651E-8
           4525.2     1.955928E-8
         4529.238     1.900637E-8
         4533.281     1.896130E-8
         4537.324     1.903499E-8
         4541.371     1.910875E-8
         4545.422     1.918258E-8
         4549.479     1.925654E-8
         4553.539     1.933077E-8
           4557.6     1.940507E-8
         4561.668     1.947942E-8
         4565.734     1.955360E-8
         4569.809     1.962797E-8
         4573.887     3.042508E-8
         4577.967     4.183736E-8
         4582.053     4.921311E-8
         4586.142     5.253444E-8
         4590.233     5.574440E-8
         4594.327     5.671446E-8
         4598.425     5.769107E-8
         4602.529     4.859770E-8
         4606.637     3.312018E-8
         4610.746     2.163782E-8
          4614.86     2.870894E-8
         4618.979     3.583915E-8
         4623.097     3.502148E-8
         4627.223     3.154480E-8
          4631.35     2.808727E-8
         4635.483     2.469351E-8
         4639.621     2.127154E-8
         4643.759     2.477367E-8
           4647.9     2.900814E-8
         4652.046     2.999628E-8
         4656.198     2.760925E-8
         4660.354     2.569156E-8
         4664.511     2.904060E-8
         4668.673     3.241720E-8
          4672.84     3.674840E-8
         4677.005     4.154221E-8
          4681.18     4.313069E-8
         4685.355     3.645074E-8
         4689.537     2.971245E-8
         4693.722     3.585694E-8
         4697.909     4.366170E-8
         4702.102     4.419253E-8
         4706.293     3.739928E-8
         4710.493     3.091171E-8
         4714.697     2.715338E-8
         4718.902     2.336750E-8
         4723.114     2.243206E-8
          4727.33     2.250948E-8
         4731.543     2.258678E-8
         4735.766     2.266408E-8
          4739.99     2.274143E-8
         4744.221     3.059854E-8
         4748.455     3.853319E-8
          4752.69     3.654001E-8
         4756.932     2.876564E-8
         4761.172     2.313018E-8
         4765.421     2.320834E-8
         4769.674     2.328659E-8
         4773.929     2.336488E-8
         4778.189     2.344331E-8
         4782.454     2.352164E-8
         4786.719     2.359987E-8
         4790.989     2.476817E-8
         4795.262     2.957673E-8
         4799.542     3.442384E-8
         4803.826     3.078858E-8
          4808.11     2.610437E-8
         4812.401     2.407259E-8
         4816.696     2.415146E-8
         4820.993     2.423043E-8
         4825.292     2.430972E-8
         4829.597     2.438911E-8
         4833.907     2.446860E-8
         4838.221     2.454821E-8
         4842.537     2.462783E-8
         4846.855     2.470756E-8
         4851.179     2.557176E-8
         4855.508     2.854464E-8
         4859.842     3.153876E-8
         4864.177     3.439424E-8
         4868.518     3.726558E-8
         4872.863     3.456763E-8
         4877.209     2.894736E-8
          4881.56     2.534778E-8
         4885.914     2.542827E-8
         4890.277     2.550894E-8
         4894.639     2.558958E-8
         4899.004     2.567032E-8
         4903.376     2.604293E-8
         4907.748     2.650358E-8
          4912.13     2.659757E-8
         4916.512     2.629899E-8
         4920.897     2.626628E-8
         4925.289     2.728184E-8
         4929.685     2.830424E-8
         4934.082     2.758641E-8
         4938.482     2.672745E-8
         4942.887     2.648363E-8
         4947.301     2.656578E-8
         4951.714     2.682990E-8
         4956.131     2.738316E-8
         4960.554     2.845228E-8
         4964.976     3.311644E-8
          4969.41     3.782154E-8
         4973.842     3.413616E-8
         4978.278     2.912659E-8
         4982.724     3.223928E-8
         4987.168     4.054345E-8
         4991.617     4.528745E-8
         4996.069     4.370329E-8
         5000.528     4.153526E-8
         5004.991     3.507717E-8
         5009.455     2.856907E-8
         5013.923     2.785957E-8
         5018.398     2.796014E-8
         5022.874     2.806101E-8
         5027.357     2.816218E-8
         5031.841     2.826325E-8
         5036.329     2.836422E-8
         5040.827     2.846549E-8
         5045.323     2.856705E-8
         5049.823     2.866874E-8
         5054.327     2.877014E-8
         5058.838     2.887171E-8
         5063.353     2.897369E-8
         5067.869     2.907582E-8
          5072.39     2.917807E-8
         5076.919     2.928055E-8
         5081.448     2.938290E-8
          5085.98     2.948506E-8
         5090.516     2.958739E-8
          5095.06     2.969026E-8
         5099.607     2.979326E-8
         5104.155     3.186460E-8
         5108.708     3.413857E-8
         5113.265     3.992902E-8
         5117.828     4.715904E-8
         5122.396     4.582056E-8
         5126.965     3.662570E-8
         5131.538     3.107788E-8
          5136.12     3.286078E-8
         5140.701     3.413948E-8
         5145.287     3.256523E-8
         5149.876     3.097824E-8
         5154.472     3.103677E-8
         5159.072     3.114127E-8
         5163.674     3.124580E-8
         5168.283     3.135053E-8
         5172.895     3.145537E-8
         5177.506     3.156022E-8
         5182.127     3.170556E-8
         5186.749     3.189860E-8
         5191.378     3.244703E-8
         5196.012     3.383832E-8
         5200.646     3.486666E-8
         5205.285     3.359727E-8
         5209.928     3.231764E-8
         5214.577     3.240189E-8
         5219.231     3.250789E-8
         5223.887     3.591287E-8
         5228.549     3.999969E-8
         5233.215     3.862192E-8
          5237.88     3.474840E-8
         5242.555     3.312272E-8
         5247.231     3.338604E-8
         5251.914     3.352213E-8
         5256.601     3.347173E-8
          5261.29     3.346375E-8
         5265.985     3.356997E-8
          5270.68     3.581824E-8
         5275.383     5.080213E-8
         5280.092     6.534798E-8
         5284.801     5.233863E-8
         5289.518     3.922561E-8
         5294.239     3.638711E-8
         5298.958     3.471324E-8
         5303.687     3.442570E-8
         5308.418     3.453290E-8
         5313.155     4.263247E-8
         5317.897     5.481415E-8
         5322.641     5.361231E-8
         5327.391     4.163280E-8
          5332.14     3.507071E-8
         5336.899     3.517865E-8
         5341.662     3.586896E-8
         5346.426     3.765355E-8
         5351.198     3.863317E-8
         5355.974     3.716924E-8
         5360.751     4.046710E-8
         5365.532     6.946943E-8
         5370.318     9.654726E-8
         5375.111     9.382116E-8
         5379.908     9.107478E-8
         5384.707     7.454653E-8
         5389.513     5.762442E-8
         5394.323     4.936018E-8
         5399.131     4.204033E-8
          5403.95     3.918510E-8
          5408.77     3.730936E-8
         5413.597     4.999377E-8
         5418.429     6.776661E-8
         5423.262     6.178038E-8
         5428.099     4.421047E-8
          5432.94     3.734391E-8
         5437.792     3.745263E-8
         5442.643     3.756131E-8
         5447.497     3.767009E-8
         5452.359     4.805442E-8
         5457.225     6.945120E-8
         5462.092     7.264082E-8
         5466.964     5.144215E-8
          5471.84     4.208058E-8
         5476.724     5.249269E-8
         5481.612     5.615819E-8
         5486.501     4.595320E-8
         5491.398     4.319337E-8
         5496.293     5.927975E-8
         5501.198     7.259644E-8
         5506.108     7.701413E-8
         5511.019     7.771842E-8
         5515.938     6.409654E-8
          5520.86     5.529924E-8
         5525.785     6.969621E-8
         5530.713     7.906701E-8
         5535.646     5.818045E-8
         5540.587     3.967058E-8
         5545.532     3.977086E-8
         5550.478     3.994167E-8
         5555.432     4.077551E-8
         5560.387     4.149830E-8
         5565.347     4.086498E-8
         5570.313     4.154258E-8
         5575.282     6.180859E-8
         5580.258     8.282063E-8
         5585.238     1.152992E-7
          5590.22     1.441900E-7
         5595.206     9.163878E-8
         5600.197     4.087277E-8
         5605.198     4.093029E-8
         5610.197     4.098777E-8
         5615.201     4.104526E-8
         5620.213     4.111692E-8
         5625.226     4.150664E-8
         5630.246     4.324483E-8
         5635.268     7.116406E-8
         5640.294     9.625968E-8
         5645.328     7.432051E-8
         5650.367     5.464755E-8
         5655.406     6.488242E-8
         5660.451     7.379981E-8
         5665.502     6.890123E-8
         5670.559     6.325973E-8
         5675.617     5.176497E-8
         5680.679     4.178501E-8
         5685.752     4.184144E-8
         5690.823     4.192288E-8
         5695.899     4.213417E-8
         5700.979     4.228612E-8
         5706.064     4.218725E-8
          5711.16     4.352507E-8
         5716.254     4.974682E-8
         5721.353     5.271194E-8
         5726.456     4.659161E-8
         5731.567     4.269079E-8
         5736.682     4.386582E-8
         5741.799     4.425639E-8
          5746.92     4.319193E-8
         5752.053     4.671038E-8
         5757.183     5.712638E-8
         5762.318     9.071468E-8
         5767.458     1.526043E-7
         5772.602     1.512985E-7
         5777.757     8.781083E-8
         5782.911     5.593882E-8
         5788.068     4.847815E-8
         5793.237     4.484387E-8
         5798.401     4.350884E-8
         5803.577     7.253963E-8
         5808.753     1.152471E-7
         5813.937     1.437730E-7
         5819.126     1.678409E-7
         5824.316     1.165219E-7
         5829.511     4.971389E-8
         5834.711     9.792257E-8
         5839.918     1.583178E-7
          5845.13     1.044754E-7
         5850.344     5.243013E-8
         5855.562     5.378026E-8
         5860.792     5.446973E-8
         5866.016     5.142038E-8
         5871.251     4.844834E-8
         5876.488     4.576096E-8
         5881.732     4.785205E-8
         5886.982     5.968172E-8
         5892.232     7.365691E-8
         5897.491     9.055480E-8
         5902.749     8.371734E-8
         5908.017     5.507663E-8
          5913.29     4.431004E-8
         5918.563     4.436673E-8
         5923.846     5.932928E-8
         5929.133     7.992331E-8
         5934.421     6.621343E-8
         5939.714     4.570333E-8
         5945.012     4.464848E-8
         5950.318     4.472713E-8
         5955.629     4.515206E-8
         5960.941     4.544741E-8
         5966.258     4.513564E-8
         5971.579     5.527233E-8
         5976.909     9.028383E-8
         5982.243     1.002826E-7
         5987.579     7.562237E-8
         5992.923     7.769169E-8
         5998.271     1.020434E-7
         6003.622     8.650829E-8
         6008.976     5.187460E-8
         6014.336     7.607619E-8
         6019.704     1.142505E-7
         6025.076     1.290558E-7
          6030.45     1.406678E-7
         6035.832     1.321993E-7
         6041.219     1.282641E-7
         6046.604     1.398631E-7
         6052.001     1.381419E-7
         6057.399     1.137567E-7
         6062.805     1.092240E-7
         6068.216     1.231560E-7
         6073.628     1.328998E-7
         6079.046     1.405893E-7
         6084.468     1.028295E-7
         6089.898     5.526816E-8
         6095.333     1.414446E-7
          6100.77     2.214477E-7
         6106.215     2.483092E-7
         6111.665     2.386740E-7
         6117.112     1.459817E-7
         6122.572     1.090736E-7
         6128.033     1.350712E-7
         6133.502     2.019911E-7
         6138.976     2.919821E-7
         6144.452     2.809607E-7
         6149.936     2.466305E-7
         6155.417     2.278026E-7
         6160.911     2.081947E-7
          6166.41     1.839416E-7
          6171.91     1.665441E-7
         6177.418     1.620549E-7
         6182.932     1.873186E-7
         6188.443     2.387827E-7
         6193.966     3.110032E-7
         6199.491     3.913618E-7
         6205.024     2.793226E-7
         6210.562     1.576431E-7
         6216.101     1.247882E-7
         6221.649     1.612049E-7
         6227.195     3.615297E-7
         6232.756     4.746442E-7
         6238.315     4.983735E-7
         6243.879     4.211802E-7
         6249.452     2.999212E-7
         6255.029     4.086619E-7
         6260.608     5.319573E-7
         6266.193     5.687103E-7
         6271.782     5.936728E-7
         6277.379     5.933612E-7
         6282.982     5.523914E-7
         6288.586     4.756543E-7
         6294.198     6.425174E-7
         6299.809     8.914677E-7
         6305.435     1.051078E-6
         6311.059     1.189097E-6
         6316.688     1.247813E-6
         6322.326     1.273690E-6
         6327.968     1.252630E-6
         6333.612     1.249473E-6
         6339.262     1.256398E-6
         6344.916     1.344640E-6
         6350.579     1.456395E-6
         6356.247     1.666248E-6
         6361.916     1.830223E-6
         6367.594     1.904297E-6
         6373.277     1.980816E-6
         6378.961     2.059108E-6
         6384.651     2.082965E-6
         6390.346     2.102615E-6
         6396.049     2.245524E-6
         6401.757     2.376361E-6
         6407.467     2.479759E-6
         6413.183     2.601688E-6
         6418.906     2.738487E-6
         6424.631     2.929591E-6
         6430.365     3.139220E-6
         6436.104     3.428393E-6
         6441.845     3.658323E-6
         6447.594     3.763196E-6
         6453.345     3.966880E-6
         6459.101     4.241839E-6
         6464.866     4.519899E-6
         6470.632     4.801249E-6
         6476.407     5.105358E-6
         6482.184     5.414867E-6
         6487.969     5.733669E-6
         6493.756     6.130692E-6
         6499.548     6.570284E-6
         6505.349     6.916971E-6
         6511.154     7.294144E-6
         6516.962     7.827702E-6
         6522.778     8.387105E-6
         6528.596     8.974053E-6
         6534.419     9.650821E-6
         6540.251     1.035423E-5
         6546.088     1.103043E-5
         6551.927     1.175934E-5
         6557.771     1.259737E-5
         6563.624     1.351176E-5
         6569.478     1.447129E-5
         6575.341     1.551193E-5
         6581.206     1.655407E-5
          6587.08     1.758132E-5
         6592.955     1.888053E-5
         6598.839     2.044909E-5
         6604.729     2.179387E-5
         6610.616     2.312382E-5
         6616.516     2.482929E-5
         6622.421     2.665592E-5
         6628.328     2.865712E-5
         6634.244     3.094966E-5
         6640.165     3.335473E-5
         6646.087     3.584059E-5
         6652.015     3.847068E-5
         6657.948     4.138554E-5
         6663.891     4.458007E-5
         6669.838     4.791630E-5
         6675.787     5.194239E-5
         6681.745     5.600834E-5
         6687.701     6.012767E-5
          6693.67     6.532633E-5
         6699.644     7.118947E-5
          6705.62     7.697222E-5
         6711.604     8.335212E-5
         6717.594     9.139087E-5
         6723.586     9.954335E-5
         6729.583     1.077678E-4
         6735.585     1.187707E-4
         6741.597     1.301001E-4
         6747.613     1.417904E-4
         6753.632     1.559281E-4
          6759.66     1.716684E-4
         6765.692     1.891143E-4
         6771.723     2.082769E-4
         6777.767     2.316204E-4
         6783.813     2.565559E-4
         6789.867     2.824123E-4
         6795.927     3.166170E-4
         6801.988     3.522849E-4
         6808.055     3.907065E-4
         6814.127     4.387705E-4
         6820.209     4.914581E-4
         6826.296     5.479340E-4
         6832.385     6.146050E-4
         6838.482     6.972532E-4
         6844.586     7.819411E-4
         6850.687     8.714768E-4
         6856.801     9.959930E-4
         6862.917     0.001123688
         6869.042     0.001255057
         6875.173     0.001434907
         6881.305     0.001623135
         6887.446     0.001810991
         6893.586     0.001954639
         6899.738     0.002067097
         6905.896     0.002356917
         6912.056     0.002681996
         6918.225     0.003063037
         6924.399     0.003488949
         6930.572     0.003941732
         6936.757     0.004493549
         6942.944     0.005088545
         6949.141     0.005731704
         6955.343      0.00650247
         6961.546     0.007320032
          6967.76      0.00822259
         6973.971     0.009246865
         6980.195      0.01034429
         6986.424      0.01156661
         6992.656      0.01288256
         6998.897      0.01432737
         7005.143      0.01587546
         7011.392      0.01749152
         7017.645      0.01928483
         7023.904      0.02115568
         7030.173      0.02307627
         7036.448      0.02519638
         7042.724      0.02735044
         7049.009      0.02955496
         7055.292      0.03189975
         7061.589       0.0342661
         7067.892      0.03662561
         7074.196      0.03915295
          7080.51      0.04174747
         7086.829      0.04418939
          7093.15      0.04672596
         7099.477      0.04935893
         7105.809      0.05177856
         7112.151      0.05423212
         7118.498       0.0567958
         7124.848      0.05915103
         7131.207       0.0614479
         7137.571      0.06378727
         7143.933      0.06594568
         7150.309      0.06799821
         7156.687      0.07014456
         7163.074      0.07212821
         7169.467      0.07393668
         7175.862      0.07578914
         7182.262       0.0775193
         7188.668      0.07902642
         7195.084      0.08056732
         7201.506      0.08204211
         7207.929      0.08328533
         7214.362      0.08455637
         7220.801      0.08580574
         7227.237       0.0868334
         7233.688      0.08786313
         7240.144      0.08888586
         7246.601      0.08964461
         7253.069      0.09044965
         7259.538      0.09130492
         7266.017      0.09198353
         7272.498      0.09263641
         7278.989      0.09327333
         7285.481      0.09374286
         7291.979      0.09419225
         7298.487       0.0946691
         7305.001      0.09504531
         7311.517      0.09539258
         7318.038      0.09574918
         7324.569      0.09602836
         7331.103      0.09627188
         7337.646      0.09650901
          7344.19      0.09666822
         7350.745      0.09679025
         7357.301      0.09696537
         7363.867      0.09709097
         7370.436      0.09717737
         7377.014      0.09720282
         7383.593      0.09720933
         7390.183      0.09720094
         7396.775      0.09722455
         7403.372      0.09717843
         7409.979      0.09706602
         7416.589       0.0970118
         7423.208      0.09694464
         7429.829      0.09686375
          7436.46      0.09668601
         7443.097      0.09650762
         7449.736      0.09633153
         7456.381      0.09618917
         7463.036       0.0960203
         7469.692       0.0958187
         7476.359       0.0955475
         7483.027       0.0953003
         7489.702      0.09508557
         7496.386      0.09486635
         7503.077      0.09463234
         7509.769      0.09438146
         7516.471      0.09413688
         7523.175      0.09384323
          7529.89      0.09349484
         7536.606      0.09321112
         7543.328      0.09294141
         7550.061      0.09268426
         7556.794      0.09238919
         7563.539      0.09206369
          7570.29      0.09171141
         7577.042      0.09136618
           7583.8       0.0910251
         7590.568      0.09068555
         7597.339      0.09032928
         7604.119      0.09002348
         7610.906      0.08974686
         7617.694      0.08944879
         7624.489      0.08909282
          7631.29      0.08871721
           7638.1      0.08838285
         7644.917      0.08810312
         7651.736      0.08782397
         7658.565      0.08748461
         7665.396       0.0871265
         7672.233      0.08678002
         7679.081      0.08646716
          7685.93      0.08618168
          7692.79       0.0858904
         7699.655      0.08558494
         7706.523      0.08529171
         7713.401      0.08499926
         7720.276       0.0847085
         7727.167      0.08444107
         7734.063      0.08417021
         7740.961      0.08389387
          7747.87      0.08359709
         7754.785      0.08333389
         7761.697      0.08309184
         7768.625       0.0828677
         7775.554      0.08262928
         7782.494      0.08237872
         7789.439       0.0821131
         7796.387      0.08187512
         7803.345      0.08163375
         7810.301      0.08138999
         7817.271      0.08121908
         7824.249      0.08099797
         7831.227      0.08075326
         7838.216      0.08054693
         7845.212      0.08034493
         7852.209      0.08016083
         7859.213      0.08001208
         7866.223        0.079776
         7873.244       0.0795448
         7880.271      0.07933461
         7887.299      0.07918514
         7894.338      0.07898588
         7901.375       0.0787606
         7908.427      0.07855347
         7915.485      0.07835953
         7922.545      0.07816523
         7929.616      0.07796343
         7936.693      0.07773519
         7943.772      0.07755036
         7950.858      0.07739972
          7957.95      0.07721458
         7965.052      0.07699366
         7972.161      0.07676169
         7979.271      0.07653769
         7986.393      0.07635835
         7993.521      0.07616214
         8000.646      0.07593285
         8007.786      0.07559261
         8014.929      0.07526384
         8022.082      0.07492726
         8029.242      0.07456015
         8036.403      0.07420318
         8043.576      0.07381809
         8050.746      0.07341512
         8057.931      0.07310242
         8065.123      0.07270326
         8072.316      0.07230744
         8079.521      0.07198981
         8086.731      0.07156539
          8093.94      0.07117722
         8101.164      0.07080919
         8108.389      0.07036449
         8115.626      0.06994843
         8122.869      0.06954519
         8130.114      0.06914821
          8137.37      0.06870226
         8144.628      0.06829923
         8151.893      0.06790229
         8159.168      0.06745446
         8166.446       0.0670607
         8173.734      0.06663887
         8181.029      0.06617922
         8188.326      0.06568791
          8195.63      0.06530275
         8202.939      0.06491433
         8210.261      0.06447582
         8217.588      0.06406624
         8224.918       0.0636451
         8232.259      0.06321133
         8239.602      0.06276289
          8246.95      0.06236008
         8254.311      0.06195228
         8261.673       0.0615421
         8269.047      0.06113982
         8276.427       0.0607665
         8283.809       0.0603653
         8291.197      0.05995419
         8298.597      0.05964594
         8305.999      0.05927973
         8313.412      0.05893121
         8320.827       0.0586083
         8328.253      0.05819914
         8335.687      0.05784146
         8343.121      0.05749082
         8350.563      0.05714802
         8358.011      0.05704929
         8365.471      0.05690795
         8372.937      0.05678621
         8380.409      0.05671417
         8387.879      0.05657172
         8395.365      0.05649571
         8402.854      0.05641396
         8410.353      0.05627998
         8417.859      0.05613663
         8425.367      0.05606228
         8432.887       0.0559669
         8440.408      0.05579796
         8447.937      0.05569207
         8455.477      0.05554471
         8463.019        0.055366
         8470.571      0.05516818
         8478.127      0.05502775
         8485.693      0.05481965
         8493.262      0.05459619
         8500.842      0.05437591
         8508.425      0.05411264
         8516.019      0.05382543
         8523.614      0.05351601
         8531.221      0.05317665
          8538.83      0.05277488
         8546.446      0.05239756
         8554.074      0.05197613
         8561.704       0.0515142
         8569.345      0.05105573
         8576.993      0.05057909
         8584.644      0.05004257
         8592.301      0.04946651
         8599.969      0.04888584
          8607.64        0.048343
         8615.321      0.04773451
         8623.006      0.04710319
         8630.702      0.04647628
         8638.405      0.04580792
         8646.105      0.04513323
         8653.821      0.04447017
          8661.54       0.0438108
         8669.271      0.04310635
         8677.008      0.04240128
         8684.747      0.04173033
         8692.493      0.04107916
         8700.251      0.04042186
         8708.012      0.03967441
         8715.783      0.03908175
         8723.563      0.03849246
         8731.343      0.03786845
         8739.136      0.03735367
         8746.926      0.03682459
         8754.732      0.03631768
         8762.546      0.03585073
         8770.361      0.03543304
         8778.188      0.03500562
         8786.019      0.03465386
         8793.859      0.03434119
         8801.703      0.03405458
         8809.554      0.03379958
         8817.416       0.0336303
         8825.286       0.0334944
         8833.157      0.03338308
         8841.041      0.03330537
         8848.922      0.03334388
         8856.819      0.03332993
         8864.724      0.03337766
         8872.631      0.03346678
          8880.55       0.0335516
         8888.476      0.03372046
         8896.403      0.03384773
         8904.338      0.03398642
          8912.28        0.034108
         8920.234      0.03414582
         8928.195      0.03423285
         8936.159      0.03413943
         8944.135      0.03396239
         8952.117      0.03368548
         8960.097      0.03321031
         8968.094       0.0324575
         8976.093      0.03155478
         8984.104      0.03040867
         8992.122      0.02903372
         9000.143      0.02753377
         9008.175      0.02570177
         9016.205      0.02389338
         9024.252      0.02197799
         9032.306      0.02000651
         9040.362       0.0181376
         9048.431      0.01620807
         9056.506      0.01448706
         9064.579      0.01283108
         9072.669      0.01127921
         9080.761     0.009929085
         9088.865      0.00864716
         9096.978     0.007555509
         9105.092      0.00654993
         9113.218     0.005656818
         9121.341     0.004895518
         9129.481     0.004175345
          9137.63     0.003607776
          9145.78     0.003081216
         9153.942     0.002622953
         9162.112     0.002296886
         9170.284     0.002176834
         9178.464     0.002058267
         9186.655     0.001941144
         9194.849     0.001825617
         9203.056     0.001711537
         9211.264     0.001599095
         9219.485     0.001488131
         9227.708     0.001378832
         9235.938     0.001271118
         9244.182     0.001164943
         9252.427      0.00106042
         9260.685     9.573874E-4
         9268.949     8.560414E-4
         9277.217     7.564427E-4
         9285.492     6.746660E-4
         9293.779     6.092149E-4
         9302.068     5.530969E-4
          9310.37     4.986037E-4
         9318.675     4.558079E-4
         9326.991     4.133366E-4
         9335.315     3.765871E-4
         9343.637     3.434696E-4
         9351.977     3.123801E-4
         9360.317     2.861396E-4
         9368.672     2.605485E-4
         9377.033     2.387664E-4
         9385.396     2.183257E-4
         9393.768     2.001056E-4
         9402.152     1.840471E-4
         9410.538     1.679462E-4
         9418.937     1.548669E-4
         9427.338     1.424667E-4
         9435.752     1.312731E-4
         9444.173     1.211036E-4
         9452.592     1.117591E-4
         9461.028     1.031643E-4
         9469.472     9.527941E-5
         9477.918     8.823146E-5
         9486.377     8.151048E-5
         9494.838     7.527104E-5
         9503.313     6.974310E-5
         9511.788     6.494521E-5
         9520.272     6.042733E-5
          9528.77     5.592810E-5
         9537.269     5.233301E-5
          9545.78     4.864451E-5
           9554.3     4.522704E-5
         9562.821     4.219007E-5
         9571.351     3.927953E-5
         9579.894     3.693739E-5
         9588.438     3.423688E-5
         9596.995     3.213734E-5
         9605.561     2.996221E-5
         9614.128     2.797647E-5
         9622.704     2.627463E-5
         9631.286     2.457076E-5
         9639.882     2.321571E-5
         9648.485     2.165243E-5
         9657.092     2.020860E-5
         9665.711     1.894179E-5
         9674.332     1.785527E-5
         9682.961     1.682612E-5
         9691.603     1.576595E-5
         9700.252     1.491837E-5
         9708.904     1.397627E-5
         9717.569     1.325133E-5
         9726.237     1.253621E-5
         9734.912     1.178814E-5
         9743.601     1.106479E-5
         9752.291     1.043898E-5
         9760.995     9.893815E-6
         9769.701     9.205844E-6
         9778.421     8.744357E-6
         9787.147     8.228353E-6
         9795.872     7.708618E-6
         9804.614     7.240591E-6
         9813.359     6.846309E-6
         9822.118     6.492929E-6
         9830.884     6.130456E-6
         9839.652     5.910204E-6
         9848.435     5.440755E-6
         9857.219     5.151390E-6
         9866.011     4.870099E-6
         9874.816     4.642592E-6
         9883.624     4.408921E-6
         9892.444     4.120030E-6
         9901.273     3.896703E-6
         9910.104     3.619142E-6
         9918.944     3.461194E-6
         9927.791     3.249077E-6
         9936.651     3.074454E-6
         9945.521     2.877600E-6
         9954.391     2.735693E-6
         9963.275     2.607745E-6
         9972.162     2.393655E-6
         9981.057     2.229907E-6
         9989.964     2.123786E-6
          9998.88     2.009316E-6
          10007.8     1.900767E-6
         10016.72     1.830260E-6
         10025.67     1.767386E-6
          10034.6     1.674614E-6
         10043.56     1.582434E-6
         10052.52     1.535521E-6
         10061.49     1.486981E-6
         10070.47     1.357802E-6
         10079.46     1.322778E-6
         10088.45     1.313070E-6
         10097.44     1.296255E-6
         10106.46     1.174802E-6
         10115.48     1.130048E-6
          10124.5     1.105084E-6
         10133.53     1.043126E-6
         10142.58     1.005243E-6
         10151.62     9.679439E-7
         10160.68     9.152606E-7
         10169.74     8.518194E-7
         10178.81     7.918308E-7
          10187.9     7.837375E-7
         10196.99     7.464116E-7
         10206.08     6.878402E-7
         10215.19     6.620835E-7
         10224.31     6.613508E-7
         10233.43     6.314776E-7
         10242.56     5.730646E-7
         10251.69     5.458628E-7
         10260.85     5.112336E-7
           10270.     5.048542E-7
         10279.16     4.979154E-7
         10288.33     4.729472E-7
         10297.51     4.420640E-7
          10306.7     4.310456E-7
         10315.89     4.016893E-7
          10325.1     3.820797E-7
          10334.3     3.597125E-7
         10343.53     3.309213E-7
         10352.76     3.242288E-7
         10361.99     3.064380E-7
         10371.25     2.769674E-7
          10380.5     2.729637E-7
         10389.76     2.491334E-7
         10399.02     2.395285E-7
          10408.3     2.230221E-7
         10417.59     2.164260E-7
         10426.89     1.923888E-7
         10436.19     1.802211E-7
         10445.49     1.694537E-7
         10454.82     1.587089E-7
         10464.15     1.439346E-7
         10473.48     1.206874E-7
         10482.82     1.067366E-7
         10492.17     1.090446E-7
         10501.54     1.064472E-7
         10510.91     9.237763E-8
         10520.29     8.922355E-8
         10529.67     9.311329E-8
         10539.07     8.418727E-8
         10548.47     7.391079E-8
         10557.88     7.606965E-8
         10567.31     7.863989E-8
         10576.73     7.878359E-8
         10586.17     7.763506E-8
         10595.61     7.324909E-8
         10605.06     6.723523E-8
         10614.53     6.213433E-8
           10624.     6.289540E-8
         10633.48     6.680114E-8
         10642.96     6.377634E-8
         10652.45     6.003618E-8
         10661.97     5.891355E-8
         10671.48     6.006072E-8
         10680.99     6.050529E-8
         10690.53     5.438687E-8
         10700.07     4.737964E-8
         10709.61     5.123695E-8
         10719.16     5.047294E-8
         10728.72     5.010487E-8
         10738.31     4.443422E-8
         10747.88     4.428381E-8
         10757.47     4.326410E-8
         10767.08     4.231127E-8
         10776.67     4.168671E-8
         10786.29     3.998417E-8
         10795.91     3.872845E-8
         10805.54     3.825797E-8
         10815.18     3.600241E-8
         10824.83     3.344594E-8
         10834.49     3.274085E-8
         10844.17     3.163851E-8
         10853.84     3.021569E-8
         10863.52     2.991911E-8
         10873.21     2.926480E-8
         10882.91     2.807258E-8
         10892.63     2.509229E-8
         10902.35     2.434899E-8
         10912.07     2.413282E-8
         10921.81     2.302566E-8
         10931.54     2.127402E-8
         10941.31     2.040185E-8
         10951.07     1.925361E-8
         10960.83     1.709292E-8
         10970.62     1.726632E-8
         10980.39     1.600030E-8
          10990.2     1.534444E-8
           11000.     1.363813E-8
