#  Table wf4f300wsys.tab  Mon 12:22:43 02-Jun-97

#      WAVELENGTH      THROUGHPUT
#       angstroms                

            2220.    1.717070E-11
         2221.779     2.812290E-9
         2223.557     5.640854E-9
         2225.339     8.511567E-9
         2227.122     1.142034E-8
         2228.904     1.436409E-8
          2230.69     2.249449E-8
         2232.476     3.894796E-8
         2234.265     5.562645E-8
         2236.054     7.250812E-8
         2237.846     8.961695E-8
         2239.636     1.069187E-7
         2241.431     1.295017E-7
         2243.227     1.536559E-7
         2245.023     1.780853E-7
         2246.821     2.028142E-7
          2248.62     2.278371E-7
         2250.421     2.715739E-7
         2252.225     3.767710E-7
         2254.027     4.829922E-7
         2255.833     5.906297E-7
          2257.64     6.994575E-7
         2259.448     8.095532E-7
         2261.258     1.007585E-6
          2263.07     1.246194E-6
         2264.881     1.487161E-6
         2266.696     1.731212E-6
          2268.51     1.977801E-6
         2270.327     2.298492E-6
         2272.146     2.950224E-6
         2273.966     3.608790E-6
         2275.786     4.274474E-6
         2277.609     4.947392E-6
         2279.434     5.628030E-6
         2281.259     6.661718E-6
         2283.087     7.863888E-6
         2284.915     9.077969E-6
         2286.744     1.030481E-5
         2288.576     1.154462E-5
         2290.411     1.310326E-5
         2292.243     1.573473E-5
          2294.08     1.839684E-5
         2295.917     2.108442E-5
         2297.755     2.380620E-5
         2299.597     2.655956E-5
         2301.438     3.046015E-5
         2303.281     3.471802E-5
         2305.126     3.902415E-5
         2306.971     4.336900E-5
         2308.821     4.776831E-5
         2310.669     5.346189E-5
          2312.52     6.143872E-5
         2314.371     6.949655E-5
         2316.226     7.764319E-5
         2318.081     8.586724E-5
         2319.938     9.417986E-5
         2321.796     1.049358E-4
         2323.655     1.158811E-4
         2325.515     1.269348E-4
         2327.379     1.381047E-4
         2329.242     1.493780E-4
         2331.107     1.646868E-4
         2332.975     1.828596E-4
         2334.842     2.011821E-4
         2336.713     2.197076E-4
         2338.585     2.384129E-4
         2340.458     2.577037E-4
         2342.332     2.784871E-4
         2344.208     2.994645E-4
         2346.085     3.206395E-4
         2347.966     3.420379E-4
         2349.846     3.636049E-4
         2351.728     3.955617E-4
         2353.611     4.287241E-4
         2355.495     4.621925E-4
         2357.383     4.959814E-4
         2359.271     5.300790E-4
         2361.159     5.689380E-4
         2363.052     6.110431E-4
         2364.944     6.534863E-4
         2366.839     6.963351E-4
         2368.734     7.395240E-4
         2370.632     7.864986E-4
         2372.529     8.405904E-4
          2374.43     8.952146E-4
         2376.332     9.503111E-4
         2378.234     0.001005803
         2380.139     0.001062381
         2382.047      0.00112641
         2383.953     0.001190879
         2385.863     0.001255977
         2387.775     0.001321601
         2389.685     0.001387676
           2391.6     0.001464709
         2393.515      0.00154435
         2395.433     0.001624688
         2397.351     0.001705603
         2399.271     0.001787167
         2401.192     0.001872772
         2403.116     0.001961195
         2405.042     0.002050299
         2406.967     0.002140027
         2408.895     0.002230452
         2410.823     0.002326056
         2412.754     0.002428462
         2414.689     0.002531789
         2416.621     0.002635662
         2418.557     0.002740447
         2420.494     0.002847146
         2422.432     0.002958107
         2424.373     0.003069967
         2426.316     0.003182631
         2428.257     0.003295945
         2430.203     0.003411326
         2432.149     0.003536837
         2434.096     0.003663211
         2436.047     0.003790582
         2437.997     0.003918759
         2439.949     0.004047825
         2441.903     0.004177351
         2443.861     0.004307924
         2445.817     0.004439122
         2447.777     0.004571386
         2449.737     0.004704457
         2451.698     0.004844591
         2453.663     0.004986703
         2455.627     0.005129685
         2457.594      0.00527361
         2459.563     0.005418588
         2461.531      0.00555916
         2463.503      0.00569937
         2465.477      0.00584048
         2467.451     0.005982405
         2469.427     0.006125251
         2471.406      0.00627699
         2473.384     0.006432702
         2475.367     0.006589727
         2477.349     0.006747549
         2479.333     0.006906361
         2481.318     0.007058506
         2483.306     0.007207799
         2485.295     0.007357916
         2487.286     0.007509045
         2489.278     0.007661025
         2491.271     0.007819583
         2493.266     0.007982306
         2495.264     0.008146184
         2497.261     0.008310916
         2499.261     0.008476688
         2501.264      0.00863291
         2503.265     0.008783599
         2505.271     0.008935406
         2507.277     0.009087991
         2509.286     0.009241606
         2511.295     0.009402885
         2513.308     0.009569034
         2515.319     0.009735962
         2517.336     0.009904218
          2519.35      0.01007314
         2521.369      0.01022804
         2523.388       0.0103765
         2525.408       0.0105258
         2527.432      0.01067609
         2529.457      0.01082722
         2531.481      0.01098575
          2533.51      0.01114791
         2535.538      0.01131089
          2537.57      0.01146965
         2539.602      0.01161533
         2541.637      0.01174253
          2543.67      0.01186525
         2545.708      0.01198846
         2547.749      0.01211201
         2549.787      0.01223569
          2551.83      0.01236929
         2553.875      0.01250438
         2555.918      0.01263962
         2557.967      0.01277541
         2560.016      0.01291134
         2562.065      0.01302105
         2564.117      0.01313116
         2566.171      0.01324146
         2568.227      0.01335211
         2570.283      0.01346397
         2572.343      0.01358273
         2574.401      0.01370161
         2576.464      0.01382094
         2578.527      0.01394047
         2580.593      0.01405362
          2582.66      0.01415017
         2584.729      0.01424698
         2586.797      0.01434388
         2588.872      0.01444117
         2590.943      0.01453908
         2593.019      0.01463809
         2595.095      0.01473725
         2597.173      0.01483659
         2599.254      0.01493622
         2601.337      0.01502797
         2603.419      0.01511527
         2605.505      0.01520284
          2607.59      0.01529045
         2609.679      0.01537834
          2611.77      0.01546628
         2613.862      0.01555431
         2615.955       0.0156425
         2618.049      0.01573084
         2620.148      0.01581889
         2622.245      0.01589954
         2624.346      0.01598042
         2626.448      0.01606136
         2628.551      0.01614244
         2630.657      0.01622219
         2632.765      0.01629874
         2634.872      0.01637529
         2636.983      0.01645204
         2639.094      0.01652884
         2641.209       0.0165999
         2643.324      0.01666654
          2645.44      0.01673326
         2647.559      0.01680004
          2649.68      0.01686691
           2651.8      0.01692586
         2653.927      0.01698356
         2656.052       0.0170412
         2658.178      0.01709886
         2660.307       0.0171558
         2662.439      0.01720834
         2664.571      0.01726083
         2666.706      0.01731337
         2668.841      0.01736587
         2670.978      0.01741797
         2673.117      0.01746959
         2675.259      0.01752125
         2677.401      0.01757285
         2679.545      0.01762445
         2681.692       0.0176766
         2683.838      0.01772879
         2685.988      0.01778105
          2688.14      0.01783331
         2690.293      0.01788756
         2692.447      0.01795493
         2694.603      0.01802233
         2696.761      0.01808977
         2698.923      0.01815735
         2701.084      0.01823268
         2703.247      0.01831598
         2705.412      0.01839955
         2707.578      0.01848336
         2709.747      0.01856748
         2711.919      0.01864863
          2714.09      0.01872951
         2716.263      0.01881064
         2718.438      0.01889199
         2720.617      0.01896941
         2722.795      0.01903627
         2724.977       0.0191033
         2727.157      0.01917038
         2729.343      0.01923769
         2731.528      0.01930138
         2733.715      0.01936358
         2735.906      0.01942591
         2738.098      0.01948836
         2740.289      0.01955019
         2742.485      0.01960806
         2744.681      0.01966595
         2746.878      0.01972393
         2749.079      0.01978201
         2751.279      0.01981567
         2753.485       0.0198318
          2755.69      0.01984792
         2757.897      0.01986407
         2760.105      0.01987992
         2762.317      0.01988964
          2764.53      0.01989937
         2766.744       0.0199091
         2768.959      0.01991883
         2771.176      0.01992744
         2773.395      0.01993504
         2775.619      0.01994266
          2777.84      0.01995026
         2780.066      0.01995767
         2782.292      0.01995843
          2784.52      0.01995918
         2786.751      0.01995991
         2788.984      0.01996063
         2791.216      0.01996275
         2793.452      0.01996605
         2795.689      0.01996936
         2797.927      0.01997264
         2800.169      0.01997558
          2802.41      0.01997422
         2804.656      0.01997284
         2806.901      0.01997145
         2809.151      0.01997004
           2811.4      0.01996659
         2813.653      0.01996188
         2815.904      0.01995716
          2818.16      0.01995241
         2820.419      0.01994746
         2822.677      0.01994166
         2824.937      0.01993585
         2827.201      0.01993001
         2829.463      0.01992415
         2831.732      0.01992013
         2833.999      0.01991668
         2836.269      0.01991322
          2838.54      0.01990973
         2840.814      0.01990777
         2843.089      0.01990855
         2845.367      0.01990933
         2847.645       0.0199101
         2849.926      0.01991086
         2852.208      0.01990336
         2854.491      0.01989556
         2856.777      0.01988774
         2859.068      0.01987989
         2861.357      0.01987657
         2863.648      0.01987637
         2865.943      0.01987616
         2868.238      0.01987594
         2870.534      0.01987374
         2872.833      0.01986505
         2875.135      0.01985631
         2877.436      0.01984757
         2879.741      0.01983879
         2882.047      0.01983355
         2884.356      0.01982874
         2886.666      0.01982391
         2888.979      0.01981907
         2891.291      0.01980835
         2893.609      0.01979292
         2895.924      0.01977749
         2898.245      0.01976201
         2900.566      0.01973818
          2902.89      0.01968848
         2905.214      0.01963881
         2907.541      0.01958913
         2909.869      0.01953944
           2912.2      0.01949783
         2914.532      0.01945672
         2916.867      0.01941556
         2919.203      0.01937441
         2921.542      0.01932838
          2923.88      0.01927991
         2926.223      0.01923138
         2928.568      0.01918284
         2930.911      0.01913332
          2933.26       0.0190821
         2935.608      0.01903092
         2937.959      0.01897972
         2940.313      0.01892922
         2942.669      0.01888336
         2945.024      0.01883756
         2947.384      0.01879168
         2949.744      0.01874583
         2952.107      0.01869696
         2954.471      0.01864775
         2956.838      0.01859851
         2959.204      0.01854934
         2961.575      0.01850144
         2963.947      0.01845424
         2966.322      0.01840702
         2968.697      0.01835983
         2971.074      0.01830863
         2973.453      0.01825261
         2975.837      0.01819653
         2978.219      0.01814058
         2980.605      0.01808641
          2982.99      0.01803773
         2985.382      0.01798895
         2987.772      0.01794025
         2990.165      0.01789116
         2992.559      0.01783679
         2994.957       0.0177824
         2997.355      0.01772805
         2999.755      0.01767373
         3002.159       0.0176196
         3004.563      0.01756554
         3006.969      0.01751151
         3009.376      0.01745749
          3011.79        0.017404
         3014.199      0.01735086
         3016.615      0.01729765
          3019.03      0.01724449
         3021.448      0.01719231
         3023.869      0.01714076
          3026.29      0.01708925
         3028.713      0.01703775
          3031.14      0.01698362
         3033.567      0.01692662
         3035.998       0.0168696
         3038.427      0.01681269
         3040.864      0.01675602
         3043.297      0.01670012
         3045.735      0.01664417
         3048.174      0.01658827
         3050.617      0.01653137
         3053.059      0.01647159
         3055.504      0.01641183
         3057.951      0.01635212
         3060.401      0.01629272
         3062.852        0.016235
         3065.306      0.01617727
         3067.759      0.01611965
         3070.217      0.01606166
         3072.677      0.01600024
         3075.137       0.0159389
           3077.6      0.01587761
         3080.064      0.01581635
          3082.53       0.0157548
            3085.      0.01569326
          3087.47      0.01563181
         3089.944      0.01557036
         3092.418      0.01550699
         3094.895      0.01544364
         3097.373      0.01538033
         3099.853      0.01531708
         3102.339      0.01529795
         3104.821      0.01528153
         3107.309        0.015265
         3109.797      0.01524837
         3112.287      0.01522693
         3114.781      0.01520492
         3117.277       0.0151828
         3119.771       0.0151606
         3122.271      0.01513491
         3124.771      0.01510878
         3127.275       0.0150825
         3129.779       0.0150561
         3132.287      0.01502843
         3134.793      0.01500055
         3137.305      0.01497248
         3139.817      0.01494431
         3142.331      0.01491972
         3144.849      0.01489529
         3147.369      0.01487072
         3149.888      0.01484607
         3152.412      0.01481133
         3154.936        0.014776
         3157.462      0.01474049
         3159.992      0.01470481
         3162.521       0.0146746
         3165.057      0.01464419
         3167.591      0.01461369
         3170.127       0.0145827
         3172.666      0.01454515
         3175.208      0.01450739
          3177.75       0.0144695
         3180.297      0.01443179
         3182.843      0.01439675
         3185.392      0.01436156
         3187.942      0.01432621
         3190.499      0.01428886
         3193.052       0.0142441
          3195.61      0.01419909
         3198.169      0.01415392
          3200.73      0.01411072
         3203.295       0.0140728
         3205.861       0.0140347
         3208.427      0.01399649
         3210.997      0.01395408
         3213.569      0.01390523
         3216.142      0.01385618
         3218.719       0.0138069
         3221.294      0.01376068
         3223.875      0.01371739
         3226.457      0.01367395
         3229.042      0.01363028
         3231.628      0.01358075
         3234.217      0.01352761
         3236.805      0.01347432
         3239.399      0.01342073
         3241.995      0.01337276
         3244.591      0.01332637
         3247.188      0.01327979
         3249.791      0.01323297
         3252.391      0.01317527
         3254.999      0.01311627
         3257.605      0.01305711
         3260.214      0.01299815
         3262.824      0.01294396
         3265.439      0.01288951
         3268.053      0.01283487
         3270.672      0.01277777
         3273.291      0.01271408
         3275.912      0.01265014
         3278.535      0.01258593
          3281.16      0.01252628
          3283.79      0.01247244
         3286.421      0.01241837
         3289.052      0.01236412
         3291.686      0.01230396
         3294.323       0.0122403
         3296.959      0.01217648
         3299.601      0.01211231
         3302.243      0.01205261
         3304.889      0.01199345
         3307.536       0.0119341
         3310.184      0.01187378
         3312.835      0.01180343
         3315.489      0.01173275
         3318.144      0.01166185
         3320.803      0.01159356
          3323.46       0.0115319
         3326.123      0.01146991
         3328.786      0.01140771
         3331.454      0.01133956
         3334.123      0.01126639
         3336.793      0.01119299
         3339.465       0.0111193
         3342.139      0.01105678
         3344.815      0.01099689
         3347.497      0.01093667
         3350.174      0.01087569
          3352.86      0.01080428
         3355.545      0.01073269
         3358.232      0.01066081
         3360.923      0.01059095
         3363.614      0.01052538
         3366.309      0.01045951
         3369.003      0.01039345
         3371.702      0.01032262
         3374.402      0.01024896
         3377.104      0.01017499
          3379.81      0.01010069
         3382.518      0.01004189
         3385.225     0.009984128
         3387.937      0.00992605
          3390.65     0.009858266
         3393.367     0.009759905
         3396.082     0.009661298
         3398.805       0.0095621
         3401.527      0.00948086
          3404.25     0.009413569
         3406.977     0.009346002
         3409.707      0.00927812
         3412.435     0.009214359
         3415.171     0.009150728
         3417.904     0.009086966
         3420.643     0.009021708
         3423.382      0.00895247
         3426.125     0.008882909
         3428.868     0.008813109
         3431.614     0.008746655
         3434.363     0.008682435
         3437.113     0.008618003
         3439.865     0.008553302
         3442.622     0.008484408
         3445.376     0.008415132
         3448.137     0.008345477
           3450.9     0.008278077
         3453.663     0.008215702
         3456.429     0.008153066
         3459.197     0.008090179
          3461.97     0.008024544
          3464.74     0.007957793
         3467.517     0.007890679
         3470.293     0.007824171
         3473.072     0.007764471
         3475.853     0.007704524
         3478.636      0.00764433
         3481.424     0.007581315
         3484.213     0.007515608
         3487.001     0.007449716
         3489.797      0.00738342
          3492.59     0.007324664
         3495.388     0.007266185
         3498.187     0.007207504
          3500.99     0.007146842
         3503.793     0.007082851
         3506.599     0.007018595
         3509.407     0.006954074
         3512.221     0.006896082
         3515.029     0.006839845
         3517.848     0.006783209
         3520.665     0.006725144
         3523.484     0.006662674
         3526.305     0.006599951
         3529.131     0.006536922
         3531.958     0.006479585
         3534.787     0.006424693
         3537.617     0.006369564
          3540.45     0.006313403
         3543.285     0.006252743
         3546.124     0.006191787
         3548.963     0.006130611
         3551.805     0.006075235
         3554.651     0.006023071
         3557.498     0.005970718
         3560.348     0.005917559
         3563.197     0.005860313
         3566.054     0.005802707
         3568.909      0.00574493
         3571.767      0.00569062
         3574.627     0.005638382
          3577.49     0.005585917
         3580.354     0.005532902
         3583.225     0.005477294
         3586.094     0.005421529
         3588.968      0.00536548
          3591.84     0.005312991
         3594.719     0.005262267
         3597.596     0.005211424
         3600.479     0.005159661
         3603.362     0.005104543
         3606.247      0.00504919
         3609.135     0.004993595
         3612.025      0.00494268
         3614.919     0.004893617
         3617.815     0.004844342
          3620.71     0.004794125
         3623.612      0.00474118
         3626.513     0.004688036
         3629.417     0.004634664
         3632.327     0.004586011
         3635.232     0.004538535
         3638.146     0.004490724
          3641.06     0.004441639
         3643.975     0.004390353
         3646.895     0.004338808
         3649.813     0.004287112
          3652.74     0.004240334
         3655.665     0.004193773
         3658.592     0.004147009
         3661.521      0.00409854
         3664.453     0.004048475
         3667.392     0.003998122
         3670.326     0.003948247
         3673.267     0.003902846
         3676.208     0.003857275
         3679.152     0.003811508
           3682.1     0.003764068
         3685.051     0.003715838
         3687.999     0.003667466
         3690.954     0.003620671
          3693.91     0.003577592
         3696.868     0.003534328
         3699.828     0.003490875
          3702.79     0.003445225
          3705.76     0.003399183
         3708.723     0.003353073
         3711.697      0.00330826
         3714.668     0.003264542
         3717.643     0.003220631
          3720.62     0.003176267
         3723.601     0.003130672
         3726.585      0.00308488
         3729.569     0.003038924
         3732.555     0.002995224
         3735.546     0.002951727
         3738.535     0.002908101
         3741.533     0.002863688
         3744.527     0.002818693
         3747.527     0.002773442
         3750.528     0.002728493
         3753.531     0.002685534
         3756.539     0.002642362
         3759.547     0.002599031
         3762.559     0.002554029
         3765.572      0.00250861
         3768.587     0.002462992
         3771.605     0.002418617
         3774.625     0.002375315
         3777.651     0.002331768
         3780.676     0.002287934
         3783.704     0.002243358
         3786.733     0.002198596
         3789.765     0.002153641
         3792.802     0.002110309
         3795.839     0.002066978
         3798.881     0.002023436
         3801.923     0.001979315
         3804.967     0.001934765
         3808.014     0.001890023
         3811.065     0.001834975
         3814.116     0.001760887
         3817.173     0.001686441
         3820.227     0.001611787
         3823.288     0.001536705
          3826.35     0.001461376
         3829.416     0.001385684
         3832.484     0.001343576
         3835.553     0.001309313
         3838.624      0.00127491
         3841.698     0.001238448
         3844.774      0.00120028
         3847.857       0.0011619
         3850.934     0.001125453
         3854.021     0.001093335
         3857.108     0.001061125
         3860.196     0.001028591
         3863.289     9.930187E-4
         3866.383     9.573241E-4
         3869.481     9.214591E-4
         3872.577     8.908096E-4
          3875.68     8.610659E-4
         3878.783     8.312200E-4
         3881.889     7.997179E-4
            3885.     7.670711E-4
         3888.113     7.342926E-4
         3891.224     7.041088E-4
         3894.342     6.779095E-4
          3897.46     6.516209E-4
         3900.583     6.249055E-4
         3903.704     5.968013E-4
         3906.834     5.685256E-4
         3909.963     5.401750E-4
         3913.094     5.175826E-4
         3916.227     4.949676E-4
         3919.365     4.722486E-4
         3922.501     4.488784E-4
         3925.646     4.252181E-4
         3928.788     4.015108E-4
         3931.936     3.811831E-4
         3935.084     3.629867E-4
         3938.237     3.447062E-4
         3941.391     3.263294E-4
         3944.547     3.078353E-4
         3947.707     2.892567E-4
         3950.868     2.718789E-4
         3954.032     2.577704E-4
           3957.2     2.435976E-4
         3960.367     2.294210E-4
          3963.54     2.154179E-4
         3966.716     2.013602E-4
         3969.892     1.872589E-4
         3973.071     1.768161E-4
         3976.252     1.664631E-4
         3979.441     1.560564E-4
         3982.625     1.459624E-4
         3985.816     1.358872E-4
         3989.008     1.257802E-4
         3992.202     1.176109E-4
         3995.399     1.103028E-4
           3998.6     1.029624E-4
         4001.802     9.575511E-5
         4005.009     8.865409E-5
         4008.213     8.155996E-5
         4011.427     7.537621E-5
         4014.637     7.036339E-5
         4017.854     6.534150E-5
         4021.071     6.045699E-5
         4024.293     5.584108E-5
         4027.515     5.122608E-5
          4030.74     4.692837E-5
         4033.968     4.370167E-5
         4037.202     4.046938E-5
         4040.431     3.728884E-5
          4043.67     3.438779E-5
         4046.908     3.148947E-5
         4050.149     2.863176E-5
         4053.392     2.663664E-5
          4056.64     2.463954E-5
          4059.89     2.264170E-5
         4063.141     2.087289E-5
         4066.395     1.911157E-5
         4069.651     1.734963E-5
          4072.91     1.609845E-5
         4076.173     1.490754E-5
         4079.437     1.371706E-5
         4082.704     1.264073E-5
         4085.975     1.158731E-5
         4089.247     1.053422E-5
         4092.523     9.739844E-6
         4095.798     9.023799E-6
         4099.082     8.306119E-6
         4102.365     7.660477E-6
         4105.649     7.042548E-6
         4108.937     6.424440E-6
         4112.227     5.927337E-6
          4115.52     5.487927E-6
          4118.82     5.047873E-6
         4122.118     4.646629E-6
         4125.418     4.266636E-6
         4128.722     3.886557E-6
          4132.03     3.591920E-6
         4135.339     3.351361E-6
         4138.652     3.110609E-6
         4141.966     2.881824E-6
         4145.283     2.661112E-6
         4148.602     2.440420E-6
         4151.924     2.254362E-6
         4155.251     2.093433E-6
         4158.578     1.932597E-6
         4161.908     1.806148E-6
         4165.243     1.705275E-6
         4168.578     1.604476E-6
         4171.916     1.492146E-6
         4175.261     1.371094E-6
           4178.6     1.250365E-6
         4181.951     1.164403E-6
         4185.299     1.103719E-6
          4188.65     1.043038E-6
         4192.004     9.703364E-7
         4195.361     8.895365E-7
         4198.725     8.086377E-7
         4202.087     7.533842E-7
         4205.452     7.136642E-7
         4208.822     6.738214E-7
         4212.189     6.339367E-7
         4215.567     5.938707E-7
          4218.94     5.537863E-7
         4222.321     5.135510E-7
         4225.702     4.732434E-7
         4229.085     4.328367E-7
         4232.474     4.072275E-7
         4235.863     3.870940E-7
         4239.255     3.669138E-7
         4242.652     3.466660E-7
         4246.049     3.263853E-7
         4249.449     3.060552E-7
         4252.852     2.856752E-7
         4256.259     2.652339E-7
         4259.667     2.447576E-7
         4263.078     2.429258E-7
         4266.494     2.431119E-7
         4269.911     2.432980E-7
          4273.33     2.232167E-7
         4276.754     2.025275E-7
         4280.178     1.828929E-7
         4283.608     1.830307E-7
         4287.038     1.831687E-7
         4290.471     1.833067E-7
         4293.909     1.834447E-7
         4297.344     1.835826E-7
          4300.79     1.788823E-7
         4304.234     1.579091E-7
         4307.681     1.368868E-7
          4311.13     1.227530E-7
         4314.582     1.228439E-7
         4318.039     1.229350E-7
         4321.497     1.230260E-7
         4324.959     1.231171E-7
         4328.422     1.232083E-7
         4331.889     1.232994E-7
         4335.359     1.233905E-7
         4338.829     1.234817E-7
         4342.305     1.235721E-7
         4345.785     1.236621E-7
         4349.265     1.237522E-7
         4352.747     1.238412E-7
         4356.232     1.239299E-7
         4359.723     1.240189E-7
         4363.216     1.241089E-7
         4366.708     1.241990E-7
         4370.207     1.242893E-7
         4373.706     1.243782E-7
         4377.208     1.244672E-7
         4380.716     1.245564E-7
         4384.223     1.246454E-7
         4387.736     1.247347E-7
          4391.25     1.248234E-7
         4394.766     1.249112E-7
         4398.288     1.249992E-7
         4401.809     1.250878E-7
         4405.336     1.251772E-7
         4408.864     1.252666E-7
         4412.394     1.253551E-7
         4415.927     1.254432E-7
         4419.463     1.255313E-7
         4423.004     1.256196E-7
         4426.544     1.257079E-7
         4430.093     1.257964E-7
          4433.64     1.258833E-7
          4437.19     1.259703E-7
         4440.746     1.260578E-7
         4444.299     1.261461E-7
          4447.86     1.262347E-7
         4451.424     1.263228E-7
         4454.989     1.264100E-7
         4458.556     1.264973E-7
         4462.126     1.265846E-7
         4465.702     1.266720E-7
          4469.28     1.267596E-7
         4472.859     1.268470E-7
          4476.44     1.269346E-7
         4480.024     1.270222E-7
         4483.614     1.271099E-7
         4487.205     1.271976E-7
           4490.8     1.272855E-7
         4494.396     1.273732E-7
         4497.995     1.274611E-7
         4501.597     1.277124E-7
         4505.201     1.281694E-7
         4508.809     1.286269E-7
         4512.424     1.290845E-7
         4516.037     1.295415E-7
         4519.653     1.299990E-7
         4523.272     1.304581E-7
         4526.894     1.309177E-7
         4530.521     1.313780E-7
         4534.147     1.318369E-7
         4537.782     1.322971E-7
         4541.416     1.327572E-7
         4545.052     1.332177E-7
         4548.694     1.336790E-7
         4552.334     1.341409E-7
         4555.984     1.346048E-7
         4559.632     1.350685E-7
         4563.283     1.355314E-7
         4566.938     1.359946E-7
         4570.594     1.364582E-7
         4574.259     1.369228E-7
         4577.922     1.373873E-7
         4581.587     1.378522E-7
         4585.256     1.383176E-7
         4588.928     1.387834E-7
         4592.604     1.392499E-7
         4596.282     1.397166E-7
         4599.965     1.401842E-7
         4603.648     1.406517E-7
         4607.334     1.411197E-7
         4611.024     1.415883E-7
         4614.716     1.420573E-7
         4618.411     1.425267E-7
         4622.112     1.429959E-7
         4625.813     1.434646E-7
          4629.52     1.439341E-7
         4633.227     1.211085E-7
         4636.937     9.462971E-8
         4640.649     7.267443E-8
         4644.365     7.291072E-8
         4648.089     7.314755E-8
         4651.812     7.338429E-8
         4655.536     7.362121E-8
         4659.264     7.385837E-8
         4662.995     7.409507E-8
         4666.734     7.433223E-8
         4670.468     7.456919E-8
          4674.21     7.480744E-8
         4677.953     7.504577E-8
         4681.699     7.528431E-8
         4685.453     7.552337E-8
         4689.202     7.576225E-8
         4692.959     7.600094E-8
         4696.717     7.623954E-8
         4700.478     7.647846E-8
         4704.242     7.671834E-8
         4708.009     7.695849E-8
         4711.784     7.719878E-8
         4715.557     7.743853E-8
         4719.333     7.767852E-8
         4723.111     7.791938E-8
         4726.894     7.816066E-8
         4730.678     7.840198E-8
         4734.469     7.864302E-8
         4738.263     7.888431E-8
         4742.057     7.912611E-8
         4745.854     7.936857E-8
         4749.654     7.961121E-8
          4753.46     7.985348E-8
         4757.266     8.009567E-8
         4761.078     8.033854E-8
          4764.89     8.058210E-8
         4768.706     8.082591E-8
         4772.524     8.106998E-8
         4776.348     8.131450E-8
         4780.175     8.155918E-8
            4784.     8.180285E-8
         4787.834     8.204709E-8
         4791.667     8.229177E-8
         4795.504     8.253726E-8
          4799.35     8.278332E-8
          4803.19     8.302905E-8
         4807.039     8.327538E-8
         4810.888     7.610740E-8
          4814.74     4.405962E-8
         4818.595     1.180205E-8
         4822.454     2.067413E-8
          4826.32     5.341145E-8
         4830.185     8.318677E-8
         4834.053     5.055356E-8
         4837.923     1.770375E-8
         4841.797              0.
         4845.677              0.
         4849.557              0.
         4853.443              0.
          4857.33              0.
         4861.219              0.
         4865.114              0.
          4869.01              0.
         4872.908              0.
         4876.813              0.
         4880.718              0.
         4884.626              0.
         4888.538              0.
         4892.455              0.
         4896.375              0.
         4900.293              0.
         4904.219              0.
         4908.146              0.
         4912.079              0.
          4916.01              0.
         4919.949              0.
         4923.891              0.
         4927.833              0.
         4931.779              0.
         4935.731              0.
         4939.681              0.
         4943.636              0.
         4947.597              0.
         4951.562              0.
         4955.527              0.
         4959.495              0.
         4963.469              0.
         4967.446              0.
         4971.421              0.
         4975.404              0.
         4979.388              0.
         4983.375              0.
         4987.368              0.
         4991.365              0.
         4995.359              0.
         4999.361              0.
         5003.364              0.
         5007.371              0.
         5011.383              0.
         5015.399              0.
         5019.415              0.
         5023.434              0.
         5027.457              0.
         5031.482              0.
         5035.514              0.
         5039.548              0.
         5043.584              0.
         5047.623              0.
         5051.664              0.
         5055.709              0.
          5059.76              0.
         5063.814              0.
         5067.869              0.
         5071.927              0.
         5075.988              0.
         5080.053              0.
         5084.121              0.
         5088.195              0.
         5092.271              0.
         5096.349              0.
          5100.43     1.413784E-9
         5104.514     1.488195E-8
         5108.602     2.844481E-8
         5112.695     3.305544E-8
         5116.792     3.298029E-8
         5120.889     3.290407E-8
         5124.989     3.282673E-8
         5129.096     3.274822E-8
           5133.2     3.266832E-8
         5137.313     3.258709E-8
          5141.43     3.250486E-8
         5145.546     3.242183E-8
         5149.667     3.233766E-8
         5153.793     3.225223E-8
         5157.917     3.216577E-8
          5162.05     3.207803E-8
         5166.186     3.198915E-8
         5170.323     3.189917E-8
         5174.463     3.180798E-8
         5178.606     3.171562E-8
         5182.756     3.162179E-8
         5186.906     3.152673E-8
         5191.059     3.143057E-8
         5195.219     3.133340E-8
         5199.378     3.123513E-8
         5203.542     3.127339E-8
         5207.711     3.133569E-8
         5211.884     3.139803E-8
         5216.055     3.146035E-8
         5220.234     3.152263E-8
         5224.414     3.158445E-8
         5228.598     3.164616E-8
         5232.787     3.170777E-8
          5236.98     3.176924E-8
         5241.173     3.183059E-8
          5245.37     3.189184E-8
          5249.57     3.195298E-8
         5253.774     3.201438E-8
         5257.984     3.207575E-8
         5262.197     3.213656E-8
         5266.411     3.219679E-8
         5270.627     3.225698E-8
         5274.848     3.231744E-8
         5279.071     3.237780E-8
         5283.302     3.243805E-8
         5287.535     3.249817E-8
         5291.769     3.255798E-8
         5296.006     3.261746E-8
         5300.247     3.266881E-8
         5304.491     3.259007E-8
         5308.738     3.251032E-8
         5312.992     3.242980E-8
          5317.25     3.234840E-8
         5321.507     3.226576E-8
         5325.768     3.218157E-8
         5330.033     3.209636E-8
         5334.301     3.201053E-8
         5338.575     3.192364E-8
         5342.853     3.183573E-8
         5347.131     3.174685E-8
         5351.413     3.165680E-8
         5355.697     3.156547E-8
         5359.986     3.147309E-8
         5364.281     3.137961E-8
         5368.579     3.128510E-8
         5372.878     3.118935E-8
          5377.18     3.109244E-8
         5381.489     3.099455E-8
         5385.795     3.089602E-8
          5390.11     3.079629E-8
         5394.429     3.069510E-8
         5398.749     3.059293E-8
         5403.072     3.051365E-8
         5407.398     3.044326E-8
         5411.731     3.037200E-8
         5416.064     3.029997E-8
         5420.404     3.022698E-8
         5424.745     3.015278E-8
         5429.088     3.007771E-8
         5433.436     3.000178E-8
         5437.789     2.992495E-8
         5442.141     2.984734E-8
         5446.501     2.976877E-8
         5450.865     2.968924E-8
          5455.23     2.960856E-8
         5459.598     2.952702E-8
         5463.973     2.944457E-8
         5468.351     2.936126E-8
         5472.727     2.927695E-8
         5477.112     2.919150E-8
         5481.498     2.910522E-8
         5485.887     2.901803E-8
         5490.283     2.892989E-8
         5494.682     2.884088E-8
         5499.082     2.875103E-8
         5503.485     2.866370E-8
         5507.892     2.857643E-8
         5512.302     2.848832E-8
         5516.719     2.839932E-8
          5521.14     2.830949E-8
         5525.561     2.821897E-8
         5529.985     2.812764E-8
         5534.413     2.803509E-8
         5538.844     2.794174E-8
          5543.28     2.784728E-8
         5547.721     2.775186E-8
         5552.167     2.765575E-8
         5556.612     2.755903E-8
         5561.062     2.746142E-8
         5565.515     2.736273E-8
         5569.971     2.726322E-8
         5574.434     2.716284E-8
         5578.901     2.706161E-8
         5583.368     2.695933E-8
         5587.839     2.685614E-8
         5592.313     2.675208E-8
         5596.792     2.664717E-8
         5601.276     2.653431E-8
         5605.764     2.640309E-8
         5610.253     2.627142E-8
         5614.745     2.613922E-8
         5619.241     2.600648E-8
         5623.741     2.587291E-8
         5628.247     2.573867E-8
         5632.756     2.560382E-8
         5637.267     2.546848E-8
         5641.781     2.533263E-8
         5646.301     2.519619E-8
         5650.819     2.505940E-8
         5655.347     2.492187E-8
         5659.879     2.478378E-8
         5664.411     2.464518E-8
         5668.947     2.450604E-8
         5673.489     2.436602E-8
         5678.035     2.422541E-8
         5682.576     2.408454E-8
         5687.129     2.394285E-8
         5691.686     2.380059E-8
         5696.243     2.365789E-8
         5700.805     2.351461E-8
         5705.373     2.337065E-8
         5709.938     2.322633E-8
         5714.513     2.308132E-8
         5719.092     2.293577E-8
         5723.671     2.278973E-8
         5728.254     2.264316E-8
         5732.845     2.249591E-8
         5737.438     2.234815E-8
         5742.029     2.219984E-8
          5746.63     2.205058E-8
         5751.231     2.190095E-8
         5755.837     2.175101E-8
         5760.449     2.160044E-8
         5765.064     2.144930E-8
         5769.681     2.129772E-8
         5774.301     2.114528E-8
         5778.924     2.099227E-8
         5783.552     2.083886E-8
         5788.186     2.068483E-8
         5792.824     2.053011E-8
         5797.462     2.037485E-8
         5802.105     2.028466E-8
          5806.75     2.027340E-8
           5811.4     2.026194E-8
         5816.057     2.025014E-8
         5820.717     2.023828E-8
         5825.378     2.022657E-8
         5830.042     2.021473E-8
         5834.711     2.020256E-8
         5839.383     2.019029E-8
         5844.059     2.017809E-8
         5848.742     2.016581E-8
         5853.428     2.015317E-8
         5858.115     2.014034E-8
         5862.806     2.012758E-8
           5867.5     2.011483E-8
         5872.199     2.010195E-8
         5876.904     2.008894E-8
         5881.613     2.007581E-8
         5886.323     2.006257E-8
         5891.036     2.004923E-8
         5895.756     2.003575E-8
         5900.474     2.002475E-8
         5905.202     2.003660E-8
         5909.934     2.004841E-8
         5914.666     2.006045E-8
         5919.402     2.007247E-8
         5924.145     2.008418E-8
         5928.885     2.009581E-8
         5933.636     2.010762E-8
         5938.391     2.011947E-8
         5943.146     2.013125E-8
         5947.905     2.014300E-8
         5952.667     2.015470E-8
         5957.437     2.016637E-8
         5962.208     2.017812E-8
         5966.981     2.018999E-8
         5971.763     2.020171E-8
         5976.544     2.021319E-8
          5981.33     2.022474E-8
         5986.123     2.023651E-8
         5990.919     2.024822E-8
         5995.713     2.025980E-8
         6000.518     2.026306E-8
         6005.322     2.019753E-8
         6010.131     2.013193E-8
         6014.947     2.006645E-8
         6019.767     2.000089E-8
         6024.583     1.993533E-8
         6029.411     1.986960E-8
         6034.239     1.980379E-8
          6039.07     1.973790E-8
          6043.91     1.967186E-8
         6048.752     1.960573E-8
         6053.596     1.953976E-8
         6058.443     1.947378E-8
         6063.294     1.940745E-8
         6068.149     1.934091E-8
         6073.012     1.927446E-8
         6077.878     1.920807E-8
         6082.745     1.914161E-8
         6087.615     1.907506E-8
          6092.49     1.900841E-8
         6097.368     1.894169E-8
          6102.25     1.889218E-8
          6107.14     1.886285E-8
         6112.034     1.883343E-8
         6116.928     1.880394E-8
         6121.826     1.877443E-8
         6126.728     1.874493E-8
         6131.634     1.871535E-8
         6136.547     1.868564E-8
         6141.464     1.865599E-8
         6146.381     1.862657E-8
         6151.303     1.859701E-8
         6156.229     1.856713E-8
         6161.158     1.853722E-8
         6166.095     1.850731E-8
         6171.036     1.847733E-8
         6175.977     1.844727E-8
         6180.922     1.841717E-8
         6185.875     1.838706E-8
         6190.825     1.835693E-8
         6195.786     1.832665E-8
          6200.75     1.830191E-8
         6205.715     1.830858E-8
         6210.685     1.831519E-8
         6215.657     1.832148E-8
         6220.635     1.832782E-8
         6225.619     1.833448E-8
         6230.607     1.834108E-8
         6235.597     1.834734E-8
         6240.589     1.835365E-8
         6245.586     1.836028E-8
         6250.591     1.836687E-8
         6255.593     1.837313E-8
         6260.605     1.837937E-8
         6265.622     1.838542E-8
         6270.639     1.839149E-8
          6275.66     1.839773E-8
         6280.688     1.840394E-8
         6285.721     1.840998E-8
         6290.751     1.841601E-8
         6295.792     1.842195E-8
         6300.833     1.842212E-8
         6305.878     1.839306E-8
         6310.931     1.836387E-8
         6315.987     1.833435E-8
         6321.045     1.830484E-8
         6326.106     1.827534E-8
         6331.172     1.824579E-8
         6336.242     1.821612E-8
         6341.319     1.818635E-8
           6346.4     1.815639E-8
         6351.481     1.812639E-8
         6356.567     1.809630E-8
         6361.657     1.806610E-8
         6366.751     1.803573E-8
         6371.849     1.800530E-8
         6376.955     1.797476E-8
         6382.065     1.794421E-8
         6387.175     1.791370E-8
          6392.29     1.788298E-8
         6397.408     1.785202E-8
         6402.531     1.796753E-8
         6407.661     1.823345E-8
         6412.795     1.849958E-8
          6417.93     1.876573E-8
         6423.069     1.903192E-8
         6428.212     1.929818E-8
         6433.359     1.956465E-8
         6438.515     1.983154E-8
         6443.673     2.009845E-8
         6448.833     2.036534E-8
         6453.997     2.063238E-8
         6459.165     2.089961E-8
         6464.337     2.116647E-8
         6469.517     2.143360E-8
         6474.701     2.170093E-8
         6479.885     2.196825E-8
         6485.074     2.223582E-8
          6490.27     2.250373E-8
         6495.463     2.277071E-8
         6500.668     2.362333E-8
         6505.877     2.844241E-8
         6511.086     3.324913E-8
           6516.3     3.804623E-8
         6521.521     4.283655E-8
         6526.747     4.761700E-8
         6531.966     5.237791E-8
           6537.2     5.713816E-8
         6542.438     6.188871E-8
         6547.677     6.662556E-8
          6552.92     7.135263E-8
          6558.17     7.607203E-8
         6563.418     8.077545E-8
         6568.678     8.547506E-8
         6573.941     9.016215E-8
         6579.205     9.483519E-8
         6584.473     1.222289E-7
         6589.749     1.536218E-7
         6595.029     1.548933E-7
         6600.307     1.546629E-7
         6605.595     1.544297E-7
         6610.885     1.541962E-7
         6616.178     1.539606E-7
         6621.479     1.764691E-7
         6626.785     2.576393E-7
         6632.091     3.065146E-7
         6637.402     3.060384E-7
         6642.717     3.470726E-7
         6648.036     4.276747E-7
         6653.363     5.081416E-7
         6658.694     5.884061E-7
         6664.026     6.684380E-7
         6669.358     7.482262E-7
         6674.702     8.990848E-7
         6680.047     1.059183E-6
         6685.399     1.219003E-6
         6690.753     1.378334E-6
         6696.114     1.537348E-6
         6701.476     1.718025E-6
         6706.842     1.956562E-6
         6712.212     2.194492E-6
         6717.587     2.431859E-6
          6722.97     2.668791E-6
         6728.356     2.905113E-6
         6733.744     3.251998E-6
         6739.136     3.646826E-6
         6744.532     3.973463E-6
         6749.933     4.286476E-6
         6755.341     4.756706E-6
         6760.754     5.216586E-6
         6766.168     5.606294E-6
         6771.586     6.041628E-6
         6777.008     6.588394E-6
         6782.435     7.098088E-6
         6787.869     7.562888E-6
         6793.308     8.123046E-6
         6798.748     8.743490E-6
         6804.192     9.301263E-6
         6809.644     9.839735E-6
         6815.093     1.052368E-5
         6820.554     1.120909E-5
         6826.015     1.182129E-5
         6831.484     1.247503E-5
         6836.955     1.324140E-5
         6842.433     1.397125E-5
         6847.912     1.465491E-5
         6853.396     1.538535E-5
         6858.883     1.614367E-5
         6864.379     1.683766E-5
         6869.875     1.751330E-5
          6875.38     1.834095E-5
         6880.886     1.915668E-5
         6886.392     1.990409E-5
          6891.91     2.067749E-5
         6897.432     2.149967E-5
         6902.955     2.219389E-5
         6908.482     2.277734E-5
         6914.018     2.352921E-5
         6919.558     2.434296E-5
         6925.095     2.501059E-5
         6930.644     2.567395E-5
         6936.193     2.640375E-5
         6941.748     2.708269E-5
          6947.31     2.765375E-5
         6952.876     2.826310E-5
         6958.444     2.890751E-5
         6964.016     2.949485E-5
         6969.592     3.005913E-5
         6975.173     3.055045E-5
         6980.762     3.102452E-5
         6986.352     3.143058E-5
          6991.95     3.186238E-5
         6997.548     3.234249E-5
         7003.151     3.276175E-5
         7008.759     3.313293E-5
         7014.375     3.344248E-5
         7019.992     3.373318E-5
         7025.617     3.402305E-5
         7031.242     3.432792E-5
         7036.873     3.469059E-5
         7042.507     3.498381E-5
          7048.15     3.519149E-5
         7053.794     3.539820E-5
         7059.446     3.560398E-5
         7065.099     3.580837E-5
         7070.756     3.601148E-5
         7076.417     3.621336E-5
         7082.084     3.638657E-5
         7087.759     3.651170E-5
         7093.438     3.663632E-5
         7099.118     3.676018E-5
         7104.803     3.688316E-5
         7110.496     3.699243E-5
         7116.185     3.696627E-5
         7121.887     3.698857E-5
          7127.59     3.710867E-5
         7133.301     3.710116E-5
         7139.013     3.700101E-5
         7144.733     3.702129E-5
          7150.45     3.705468E-5
          7156.18     3.695417E-5
          7161.91     3.685384E-5
         7167.649     3.675358E-5
         7173.388     3.661120E-5
         7179.136     3.643971E-5
         7184.885     3.632947E-5
         7190.638     3.622217E-5
         7196.396     3.605185E-5
         7202.162     3.588183E-5
         7207.929     3.571239E-5
         7213.701     3.554340E-5
         7219.481     3.537473E-5
         7225.266     3.514243E-5
         7231.047     3.491758E-5
         7236.841     3.475061E-5
         7242.636     3.455234E-5
         7248.436     3.431660E-5
         7254.244     3.408146E-5
         7260.056     3.384640E-5
         7265.866     3.354310E-5
         7271.688     3.324067E-5
          7277.51     3.293998E-5
         7283.337     3.267996E-5
         7289.173     3.245013E-5
          7295.01     3.222173E-5
         7300.855     3.197373E-5
         7306.698     3.160898E-5
         7312.552     3.130563E-5
         7318.408     3.108160E-5
         7324.272     3.090784E-5
         7330.137     3.074837E-5
          7336.01     3.038915E-5
         7341.884     3.005348E-5
         7347.763     2.976543E-5
         7353.646     2.952062E-5
         7359.539     2.930230E-5
         7365.432     2.889802E-5
         7371.334     2.852500E-5
         7377.236     2.831008E-5
         7383.144     2.802448E-5
         7389.056     2.767729E-5
         7394.972     2.744430E-5
         7400.897     2.722329E-5
         7406.828     2.694674E-5
         7412.759     2.670221E-5
         7418.694     2.649395E-5
         7424.635     2.618314E-5
          7430.58     2.585105E-5
         7436.534     2.558024E-5
         7442.488     2.531045E-5
         7448.452     2.504123E-5
         7454.416     2.482232E-5
         7460.389     2.461692E-5
         7466.359     2.435136E-5
         7472.342     2.408644E-5
         7478.325     2.382279E-5
         7484.317     2.355996E-5
          7490.31     2.329838E-5
         7496.312     2.303808E-5
         7502.311     2.277923E-5
         7508.322     2.252123E-5
         7514.334     2.226440E-5
         7520.355     2.201218E-5
         7526.377     2.182150E-5
         7532.408     2.160577E-5
         7538.439     2.135262E-5
         7544.471     2.119510E-5
         7550.517     2.105452E-5
         7556.566     2.074000E-5
         7562.617     2.045439E-5
         7568.673     2.020583E-5
         7574.738     1.995810E-5
         7580.807     1.973653E-5
         7586.873     1.967956E-5
         7592.952     1.953110E-5
         7599.032     1.928660E-5
         7605.117     1.909564E-5
         7611.211     1.890280E-5
          7617.31     1.866082E-5
         7623.409     1.845468E-5
         7629.509     1.827682E-5
         7635.623     1.804251E-5
         7641.736     1.783941E-5
          7647.86     1.772517E-5
         7653.988     1.753132E-5
         7660.117     1.729789E-5
         7666.246     1.718551E-5
         7672.389     1.702582E-5
         7678.532     1.679246E-5
         7684.685     1.665250E-5
         7690.838     1.653380E-5
         7697.001     1.636316E-5
         7703.164     1.619332E-5
         7709.333     1.602415E-5
         7715.505     1.585567E-5
         7721.684     1.570419E-5
         7727.871     1.559677E-5
         7734.063     1.545049E-5
         7740.256     1.528441E-5
         7746.454     1.511905E-5
         7752.657     1.497973E-5
         7758.864     1.487477E-5
         7765.082     1.472184E-5
         7771.304     1.457111E-5
         7777.526     1.446755E-5
         7783.754     1.436434E-5
         7789.987     1.426150E-5
         7796.224     1.404260E-5
         7802.471     1.387036E-5
         7808.723     1.376913E-5
         7814.976     1.366833E-5
         7821.234     1.355648E-5
           7827.5     1.339869E-5
         7833.764     1.331088E-5
         7840.041     1.326834E-5
         7846.319     1.311212E-5
         7852.606     1.298015E-5
         7858.894     1.288219E-5
         7865.191     1.278455E-5
         7871.489     1.268734E-5
         7877.792     1.259049E-5
           7884.1     1.249401E-5
         7890.417     1.239782E-5
         7896.735     1.230208E-5
         7903.063     1.217948E-5
         7909.391     1.202864E-5
          7915.72     1.192897E-5
         7922.063     1.185302E-5
         7928.411     1.181482E-5
         7934.759     1.173519E-5
         7941.113     1.164202E-5
         7947.476     1.154917E-5
         7953.844     1.145668E-5
         7960.208     1.136647E-5
         7966.587     1.132947E-5
         7972.966     1.126716E-5
          7979.35     1.117591E-5
         7985.744     1.108500E-5
         7992.143     1.082919E-5
         7998.542     1.024759E-5
         8004.947     1.006757E-5
         8011.357     1.000546E-5
         8017.772     9.943500E-6
         8024.196     9.881731E-6
         8030.622     9.820207E-6
         8037.056     9.758838E-6
         8043.487     9.697737E-6
         8049.933     9.636736E-6
         8056.378     9.575929E-6
         8062.833     9.515288E-6
          8069.29     9.454899E-6
         8075.756     9.394668E-6
         8082.222     9.334663E-6
         8088.694     9.274851E-6
         8095.171     9.215230E-6
         8101.657     9.159669E-6
         8108.145     9.115660E-6
         8114.642     9.071709E-6
         8121.139     9.027841E-6
         8127.642     8.983988E-6
          8134.15     8.940217E-6
         8140.663     8.896511E-6
         8147.186     8.852834E-6
         8153.714     8.809178E-6
         8160.243     8.765582E-6
         8166.777     8.722091E-6
         8173.317     8.678628E-6
         8179.861     8.635191E-6
         8186.416     8.591829E-6
         8192.971     8.548552E-6
         8199.536     8.505287E-6
         8206.102     8.467311E-6
         8212.677     8.429719E-6
         8219.249     8.392204E-6
         8225.835     8.354601E-6
         8232.421     8.317042E-6
         8239.018     8.279479E-6
         8245.615     8.241904E-6
         8252.222     8.204314E-6
          8258.83     8.166775E-6
         8265.443     8.129208E-6
         8272.062     8.091647E-6
         8278.689     8.054093E-6
         8285.318     8.016536E-6
         8291.953     7.978978E-6
         8298.597     7.941431E-6
         8305.247     7.903851E-6
         8311.893     7.866330E-6
         8318.553     7.828792E-6
         8325.214     7.791251E-6
          8331.88     7.753716E-6
         8338.556     7.716194E-6
         8345.237     7.678643E-6
         8351.915     7.648600E-6
         8358.607     7.637042E-6
         8365.301     7.625320E-6
         8371.999     7.613461E-6
         8378.707     7.601479E-6
         8385.416     7.589333E-6
         8392.135     7.577042E-6
         8398.851     7.564651E-6
          8405.58     7.549404E-6
         8412.311     7.533489E-6
         8419.052     7.517458E-6
         8425.793     7.501272E-6
         8432.544     7.484936E-6
         8439.297     7.468474E-6
         8446.054     7.451884E-6
         8452.817     7.435170E-6
          8459.59     7.418336E-6
         8466.364     7.401338E-6
         8473.148     7.384189E-6
         8479.933     7.366916E-6
         8486.723     7.349549E-6
         8493.519     7.332017E-6
         8500.319     7.314037E-6
         8507.131     7.290010E-6
         8513.947     7.265890E-6
         8520.765     7.241677E-6
         8527.588     7.217304E-6
         8534.416     7.192838E-6
          8541.25     7.168255E-6
         8548.094     7.143502E-6
         8554.938     7.118644E-6
         8561.793     7.093657E-6
         8568.649     7.068589E-6
         8575.515     7.043354E-6
         8582.377     7.018034E-6
         8589.254     6.992579E-6
         8596.132     6.966983E-6
          8603.02     6.943751E-6
         8609.908     6.923603E-6
         8616.807     6.903320E-6
         8623.702     6.882879E-6
         8630.612     6.862233E-6
         8637.522     6.841479E-6
         8644.444     6.820522E-6
         8651.366     6.799228E-6
         8658.293     6.777075E-6
          8665.23     6.754773E-6
          8672.17     6.732325E-6
         8679.113     6.709697E-6
         8686.068     6.686922E-6
         8693.023     6.663989E-6
         8699.984     6.640874E-6
         8706.955     6.612077E-6
         8713.932     6.583163E-6
         8720.904     6.554177E-6
         8727.893     6.524991E-6
         8734.881     6.495733E-6
         8741.875     6.466361E-6
          8748.88     6.436841E-6
         8755.891     6.407166E-6
         8762.896     6.377422E-6
         8769.913     6.347549E-6
          8776.94     6.317494E-6
         8783.969     6.287353E-6
         8791.007     6.257078E-6
         8798.046     6.226665E-6
         8805.096     6.200164E-6
         8812.142     6.175087E-6
         8819.203     6.149799E-6
         8826.265     6.124355E-6
         8833.337     6.098716E-6
          8840.41     6.072918E-6
         8847.493     6.046926E-6
         8854.578     6.020793E-6
         8861.668     5.994486E-6
         8868.764     5.967971E-6
         8875.865     5.941273E-6
         8882.978     5.914377E-6
         8890.096     5.887294E-6
         8897.214     5.860051E-6
         8904.338     5.828044E-6
         8911.468     5.792970E-6
         8918.604     5.757783E-6
          8925.75     5.722462E-6
         8932.902     5.687026E-6
         8940.055     5.651508E-6
         8947.214     5.615904E-6
         8954.378     5.579738E-6
         8961.548     5.543177E-6
         8968.729     5.506487E-6
          8975.91     5.469721E-6
         8983.103     5.432826E-6
         8990.296     5.395853E-6
         8997.499     5.358757E-6
         9004.699     5.328436E-6
         9011.914     5.301563E-6
         9019.131     5.274545E-6
         9026.357     5.247302E-6
         9033.585     5.219908E-6
         9040.823     5.192321E-6
         9048.058     5.164559E-6
         9055.308     5.136576E-6
         9062.559     5.108437E-6
          9069.82     5.080111E-6
         9077.083     5.051586E-6
         9084.356     5.022870E-6
          9091.63     4.993996E-6
         9098.905     4.964922E-6
         9106.196     4.930010E-6
         9113.492     4.893999E-6
          9120.79     4.857897E-6
         9128.099     4.821662E-6
         9135.407     4.785348E-6
         9142.728     4.748907E-6
         9150.044     4.712423E-6
         9157.375     4.675755E-6
         9164.708     4.638999E-6
         9172.046     4.602138E-6
         9179.396     4.565138E-6
         9186.746     4.528054E-6
         9194.107     4.490833E-6
         9201.464     4.454848E-6
         9208.837     4.423860E-6
         9216.211     4.392682E-6
         9223.596     4.361276E-6
         9230.981     4.329682E-6
         9238.378     4.297857E-6
         9245.771     4.265843E-6
         9253.179     4.233370E-6
         9260.588     4.200446E-6
         9268.009     4.167290E-6
          9275.43     4.133955E-6
         9282.861     4.100391E-6
         9290.295     4.066637E-6
         9297.734     4.032673E-6
         9305.179     3.997061E-6
         9312.635     3.960610E-6
         9320.092     3.924009E-6
          9327.56     3.887210E-6
         9335.028     3.850262E-6
         9342.504     3.813139E-6
         9349.984     3.775861E-6
         9357.477     3.738353E-6
          9364.97     3.700693E-6
         9372.468     3.662860E-6
         9379.979     3.624815E-6
         9387.489     3.586618E-6
         9395.006     3.548243E-6
         9402.528     3.509730E-6
         9410.063     3.471090E-6
         9417.598     3.432292E-6
         9425.144     3.393282E-6
          9432.69     3.354112E-6
         9440.249     3.314725E-6
         9447.803     3.275207E-6
         9455.373     3.235460E-6
         9462.944     3.195547E-6
         9470.527     3.155402E-6
          9478.11     3.115099E-6
         9485.705     3.074574E-6
         9493.301     3.033884E-6
         9500.902     2.994423E-6
          9508.51     2.965409E-6
         9516.129     2.936326E-6
         9523.749     2.907217E-6
          9531.38     2.878044E-6
         9539.012     2.848845E-6
          9546.65     2.819601E-6
         9554.295     2.790303E-6
          9561.95     2.760939E-6
         9569.606     2.731565E-6
          9577.27     2.702147E-6
         9584.943     2.672668E-6
         9592.618     2.643166E-6
           9600.3     2.613457E-6
         9607.987     2.579741E-6
         9615.686     2.546067E-6
         9623.385     2.512470E-6
         9631.096     2.478905E-6
         9638.808     2.445440E-6
         9646.531     2.412015E-6
          9654.25     2.378701E-6
         9661.986     2.345402E-6
         9669.723     2.312195E-6
         9677.471     2.279015E-6
          9685.22     2.245932E-6
          9692.98     2.212896E-6
         9700.737     2.180339E-6
          9708.51     2.151272E-6
         9716.284     2.122176E-6
         9724.069     2.093026E-6
         9731.855     2.063853E-6
         9739.653     2.034607E-6
         9747.452     2.005338E-6
         9755.258     1.975481E-6
         9763.069     1.945337E-6
         9770.892     1.915156E-6
         9778.716     1.884981E-6
         9786.551     1.854760E-6
         9794.388     1.824534E-6
          9802.23     1.793881E-6
         9810.079     1.762208E-6
         9817.935     1.730580E-6
         9825.802     1.698958E-6
         9833.669     1.667399E-6
         9841.549     1.635856E-6
          9849.43     1.604365E-6
         9857.316     1.572914E-6
         9865.209     1.541510E-6
         9873.114     1.510121E-6
          9881.02     1.478793E-6
         9888.938     1.447490E-6
         9896.855     1.416246E-6
         9904.785     1.384497E-6
         9912.711     1.352516E-6
         9920.654     1.320568E-6
         9928.598     1.288732E-6
         9936.554     1.256962E-6
          9944.51     1.225305E-6
         9952.479     1.193707E-6
         9960.447     1.162218E-6
         9968.423     1.130815E-6
         9976.405     1.099504E-6
         9984.399     1.068260E-6
         9992.395     1.037125E-6
          10000.4     1.006800E-6
         10008.41     9.902238E-7
         10016.43     9.737262E-7
         10024.45     9.572835E-7
         10032.48     9.408964E-7
         10040.51     9.245683E-7
         10048.55     9.082977E-7
         10056.59     8.920875E-7
         10064.66     8.759146E-7
         10072.71     8.598458E-7
         10080.78     8.437927E-7
         10088.85     8.278267E-7
         10096.93     8.119207E-7
         10105.02     8.721083E-7
         10113.12     9.095433E-7
         10121.22     8.420791E-7
         10129.32     7.728827E-7
         10137.43     8.094935E-7
         10145.55     8.470141E-7
         10153.67     7.973510E-7
         10161.82     6.603991E-7
         10169.95     5.581131E-7
          10178.1     6.483280E-7
         10186.25     6.050599E-7
          10194.4     6.593939E-7
         10202.57     7.352367E-7
         10210.75     6.241792E-7
         10218.92     5.472766E-7
         10227.11     5.669252E-7
         10235.29     6.203857E-7
         10243.49     6.426419E-7
         10251.69     6.089227E-7
         10259.91     5.663440E-7
         10268.13     5.789955E-7
         10276.35     5.499838E-7
         10284.58     5.102220E-7
         10292.81     4.645284E-7
         10301.06     4.130137E-7
          10309.3     4.043358E-7
         10317.57     4.181789E-7
         10325.83     3.882216E-7
          10334.1     3.853732E-7
         10342.38     4.001892E-7
         10350.66     3.565504E-7
         10358.95     3.342354E-7
         10367.25     3.334398E-7
         10375.55     3.054140E-7
         10383.86     3.045546E-7
         10392.18     3.245814E-7
          10400.5     2.834319E-7
         10408.83     2.523436E-7
         10417.17     2.295362E-7
         10425.51     2.267714E-7
         10433.86     1.963593E-7
         10442.21     1.568478E-7
         10450.59     1.911804E-7
         10458.94     2.013246E-7
         10467.33     1.867419E-7
         10475.71     1.629462E-7
          10484.1     1.511614E-7
          10492.5     1.437259E-7
          10500.9     1.200969E-7
         10509.32     1.184739E-7
         10517.72     1.396042E-7
         10526.15     1.315380E-7
         10534.58     1.123401E-7
         10543.02     1.006539E-7
         10551.46     1.005182E-7
         10559.92     9.376014E-8
         10568.37     9.234774E-8
         10576.84     8.841459E-8
         10585.31     8.981124E-8
         10593.78     9.203671E-8
         10602.27     8.670545E-8
         10610.77     7.104118E-8
         10619.26     6.995482E-8
         10627.77     6.481240E-8
         10636.28     6.705407E-8
         10644.79     7.324772E-8
         10653.32     7.578875E-8
         10661.86     7.126131E-8
          10670.4     6.675791E-8
         10678.94     6.742475E-8
         10687.49     6.635219E-8
         10696.05     6.856686E-8
         10704.62     6.867686E-8
         10713.19     6.640231E-8
         10721.78     6.434921E-8
         10730.36     6.019085E-8
         10738.95     5.883631E-8
         10747.55     4.938504E-8
         10756.16     4.732593E-8
         10764.77     4.579763E-8
          10773.4     4.142453E-8
         10782.03     3.634567E-8
         10790.66     3.306079E-8
          10799.3     3.609079E-8
         10807.95     4.055175E-8
         10816.61     3.820890E-8
         10825.27     4.095111E-8
         10833.93     4.122484E-8
         10842.62     3.631295E-8
          10851.3     3.653582E-8
           10860.     3.288157E-8
          10868.7     3.321188E-8
          10877.4     2.879164E-8
          10886.1     2.920686E-8
         10894.83     2.648666E-8
         10903.55     2.210836E-8
          10912.3     2.087694E-8
         10921.04     1.929872E-8
         10929.78     1.885332E-8
         10938.53     2.123260E-8
         10947.29     1.909743E-8
         10956.06     1.487014E-8
         10964.84     1.399460E-8
         10973.62     1.346543E-8
          10982.4     1.089804E-8
          10991.2     1.124405E-8
           11000.     9.722200E-9
