#  Table wf4f218wsys.tab  Mon 12:22:42 02-Jun-97

#      WAVELENGTH      THROUGHPUT
#       angstroms                

            1216.    5.380474E-21
          1217.34    5.455734E-21
         1218.682    5.531623E-21
         1220.026    5.607906E-21
         1221.371    5.667856E-21
         1222.717    5.728224E-21
         1224.065    5.789087E-21
         1225.414    5.850402E-21
         1226.765    5.912182E-21
         1228.117    5.974425E-21
         1229.471    6.037133E-21
         1230.826    6.090873E-21
         1232.183    6.138949E-21
         1233.542    6.187341E-21
         1234.901    6.235986E-21
         1236.262    6.284950E-21
         1237.625    6.334194E-21
         1238.989    6.383764E-21
         1240.355    6.430441E-21
         1241.722    6.468139E-21
         1243.091    6.506044E-21
         1244.461    6.544133E-21
         1245.833    6.582391E-21
         1247.207    6.620873E-21
         1248.582    6.659530E-21
         1249.957    6.698354E-21
         1251.335    6.728478E-21
         1252.715    6.758436E-21
         1254.095    6.788497E-21
         1255.478    6.818700E-21
         1256.862    6.849009E-21
         1258.247    6.879418E-21
         1259.634    6.909959E-21
         1261.023    6.935029E-21
         1262.413    6.958171E-21
         1263.805    6.981377E-21
         1265.198    7.004649E-21
         1266.592    7.027977E-21
         1267.989    7.051384E-21
         1269.387    7.074869E-21
         1270.786    7.094804E-21
         1272.187    7.111979E-21
         1273.588    7.129176E-21
         1274.992    7.146413E-21
         1276.399    7.163685E-21
         1277.805    7.180974E-21
         1279.214    7.198297E-21
         1280.624    7.213439E-21
         1282.035    7.225794E-21
         1283.449    7.238166E-21
         1284.864    7.250538E-21
          1286.28    7.262905E-21
         1287.698    7.275289E-21
         1289.117    7.287675E-21
         1290.538    7.298698E-21
         1291.961    7.307473E-21
         1293.385    7.316236E-21
         1294.811    7.324986E-21
         1296.238    7.333728E-21
         1297.668    7.342464E-21
         1299.098    7.351181E-21
          1300.53    7.359049E-21
         1301.963    7.365465E-21
         1303.398    7.371859E-21
         1304.835    7.378235E-21
         1306.274    7.384594E-21
         1307.713    7.390926E-21
         1309.155    7.397243E-21
         1310.597    7.402796E-21
         1312.042    7.407282E-21
         1313.489    7.411740E-21
         1314.937    7.416171E-21
         1316.386    7.420573E-21
         1317.837    7.424948E-21
          1319.29    7.429294E-21
         1320.744    7.432886E-21
           1322.2    7.435754E-21
         1323.657    7.438586E-21
         1325.117    7.441385E-21
         1326.578    7.444151E-21
         1328.039    7.446881E-21
         1329.503    7.449578E-21
         1330.969    7.451394E-21
         1332.436    7.452737E-21
         1333.905    7.454040E-21
         1335.376    7.455305E-21
         1336.847    7.456527E-21
         1338.321    7.457711E-21
         1339.796    7.458856E-21
         1341.273    7.459214E-21
         1342.752    7.459411E-21
         1344.232    7.459563E-21
         1345.713    7.459673E-21
         1347.197    7.459738E-21
         1348.682    7.459760E-21
         1350.169    7.459664E-21
         1351.657    7.458965E-21
         1353.146    7.458218E-21
         1354.638    7.456644E-21
         1356.131    7.453979E-21
         1357.627    7.451272E-21
         1359.123    7.448527E-21
         1360.621    7.445591E-21
         1362.121    7.442403E-21
         1363.622    7.439175E-21
         1365.126    7.435900E-21
          1366.63    7.432586E-21
         1368.137    7.429227E-21
         1369.645    7.425824E-21
         1371.155    7.422367E-21
         1372.667    7.418861E-21
          1374.18    7.415311E-21
         1375.694    7.411722E-21
         1377.211    7.408085E-21
         1378.729    7.404407E-21
         1380.249    7.400719E-21
         1381.771    7.397170E-21
         1383.294    7.393579E-21
         1384.818    7.389946E-21
         1386.345    7.386267E-21
         1387.874    7.382545E-21
         1389.403    7.378781E-21
         1390.935    7.375314E-21
         1392.468    7.372021E-21
         1394.002    7.368688E-21
          1395.54    7.365309E-21
         1397.078    7.361893E-21
         1398.618    7.358436E-21
          1400.16    7.355011E-21
         1401.703    7.352205E-21
         1403.248    7.349360E-21
         1404.795    7.346474E-21
         1406.343    7.343550E-21
         1407.894    7.340586E-21
         1409.446    7.337582E-21
         1410.999    7.334779E-21
         1412.555    7.332070E-21
         1414.112    7.329321E-21
          1415.67    7.326537E-21
         1417.231    7.323713E-21
         1418.793    7.320851E-21
         1420.357    7.317913E-21
         1421.923    7.314812E-21
         1423.491    7.311672E-21
         1425.059    7.308495E-21
          1426.63    7.305277E-21
         1428.203    7.302022E-21
         1429.777    7.298728E-21
         1431.354    7.294925E-21
         1432.932    7.291006E-21
          1434.51    7.287049E-21
         1436.092    7.283048E-21
         1437.676    7.279007E-21
          1439.26    7.274929E-21
         1440.847    7.270233E-21
         1442.435    7.264991E-21
         1444.024    7.259709E-21
         1445.617    7.254380E-21
          1447.21    7.249012E-21
         1448.805    7.243600E-21
         1450.402    7.237737E-21
         1452.001    7.230616E-21
         1453.602    7.223441E-21
         1455.205    7.216223E-21
         1456.808    7.208964E-21
         1458.414    7.201653E-21
         1460.022    7.194270E-21
         1461.631    7.184867E-21
         1463.243    7.175414E-21
         1464.856    7.165911E-21
          1466.47    7.156363E-21
         1468.086    7.146757E-21
         1469.706    7.137098E-21
         1471.325    7.125292E-21
         1472.947    7.112958E-21
         1474.571    7.100568E-21
         1476.196    7.088128E-21
         1477.824    7.075621E-21
         1479.453    7.063069E-21
         1481.083    7.048487E-21
         1482.716    7.032840E-21
          1484.35    7.017134E-21
         1485.987    7.001369E-21
         1487.625    6.990852E-21
         1489.264    6.988818E-21
         1490.906    6.984737E-21
         1492.549    6.978951E-21
         1494.195    6.972996E-21
         1495.842    6.966874E-21
         1497.491    6.960583E-21
         1499.142    6.954125E-21
         1500.794    6.943118E-21
         1502.449    6.927154E-21
         1504.105    6.910992E-21
         1505.763    6.894612E-21
         1507.423    6.878017E-21
         1509.084    6.861221E-21
         1510.748    6.842987E-21
         1512.414    6.823066E-21
          1514.08    6.802934E-21
         1515.749    6.782573E-21
         1517.419    6.762002E-21
         1519.093    6.741190E-21
         1520.768    6.719432E-21
         1522.444    6.696584E-21
         1524.122    6.673524E-21
         1525.802    6.650231E-21
         1527.484    6.626717E-21
         1529.168    6.602980E-21
         1530.854    6.578659E-21
          1532.54    6.553775E-21
          1534.23    6.528659E-21
         1535.921    6.503321E-21
         1537.615    6.477754E-21
          1539.31    6.451990E-21
         1541.006    6.426175E-21
         1542.705    6.400264E-21
         1544.405    6.374153E-21
         1546.109    6.337549E-21
         1547.812    6.295449E-21
         1549.518    6.253331E-21
         1551.227    6.212044E-21
         1552.936    6.171110E-21
         1554.648    6.130159E-21
         1556.363    6.089192E-21
         1558.078    6.048266E-21
         1559.795    6.007331E-21
         1561.515    5.968206E-21
         1563.235    5.929350E-21
         1564.958    5.890478E-21
         1566.685    5.851589E-21
         1568.411    5.812741E-21
          1570.14    5.774097E-21
         1571.871    5.737962E-21
         1573.603    5.701847E-21
         1575.338    5.665711E-21
         1577.075    5.629557E-21
         1578.813    5.593436E-21
         1580.553    5.558430E-21
         1582.295    5.525863E-21
         1584.039    5.493274E-21
         1585.785    5.460678E-21
         1587.534    5.428078E-21
         1589.284    5.395472E-21
         1591.036    5.365308E-21
          1592.79    5.336830E-21
         1594.545    5.308354E-21
         1596.303    5.279855E-21
         1598.062    5.251344E-21
         1599.824    5.222822E-21
         1601.588    5.198525E-21
         1603.353    5.174692E-21
          1605.12    5.150834E-21
          1606.89    5.126958E-21
         1608.661    5.103065E-21
         1610.434    5.080366E-21
          1612.21    5.061369E-21
         1613.986    5.042363E-21
         1615.765    5.023328E-21
         1617.548    5.004263E-21
          1619.33    4.985198E-21
         1621.115    4.969254E-21
         1622.902    4.955181E-21
          1624.69    4.941095E-21
         1626.482    4.926975E-21
         1628.275    4.912847E-21
         1630.069    4.898891E-21
         1631.867    4.889851E-21
         1633.665    4.880798E-21
         1635.466    4.871716E-21
         1637.269    4.862620E-21
         1639.074    4.853503E-21
          1640.88    4.846965E-21
         1642.689    4.843140E-21
           1644.5    4.839300E-21
         1646.313    4.835448E-21
         1648.128    4.831869E-21
         1649.944    4.832065E-21
         1651.763    4.837534E-21
         1653.585    4.843170E-21
         1655.407    4.848798E-21
         1657.232    4.854427E-21
         1659.058    4.860050E-21
         1660.888    4.868128E-21
         1662.719    4.878820E-21
         1664.552    4.889532E-21
         1666.386    4.900261E-21
         1668.223    4.911014E-21
         1670.062    4.921940E-21
         1671.903    4.937263E-21
         1673.746    4.952629E-21
          1675.59    4.968034E-21
         1677.437    4.983495E-21
         1679.287    4.999000E-21
         1681.139    5.017022E-21
         1682.991    5.036632E-21
         1684.847    5.056325E-21
         1686.704    5.076090E-21
         1688.563    5.095916E-21
         1690.425    5.116628E-21
         1692.287    5.140082E-21
         1694.153    5.163645E-21
         1696.021    5.187305E-21
          1697.89    5.211051E-21
         1699.762    5.234918E-21
         1701.636    5.261503E-21
         1703.512    5.288594E-21
         1705.389    5.315790E-21
         1707.269    5.343124E-21
         1709.151    5.370580E-21
         1711.035    5.399605E-21
         1712.922    5.429958E-21
         1714.809    5.460443E-21
         1716.699    5.491085E-21
         1718.592    5.521876E-21
         1720.485    5.553338E-21
         1722.383    5.586564E-21
         1724.281    5.619916E-21
         1726.182    5.653454E-21
         1728.086    5.687177E-21
          1729.99    5.721033E-21
         1731.897    5.756841E-21
         1733.806    5.792843E-21
         1735.718    5.829030E-21
          1737.63    5.865382E-21
         1739.546    5.901939E-21
         1741.463    5.939725E-21
         1743.383    5.978033E-21
         1745.305    6.016540E-21
         1747.228    6.055230E-21
         1749.154    6.094144E-21
         1751.084     1.924661E-6
         1753.013     5.377536E-6
         1754.946     8.869222E-6
          1756.88     1.239841E-5
         1758.817     1.596512E-5
         1760.756     1.957077E-5
         1762.697     2.321655E-5
         1764.639     2.689980E-5
         1766.585     3.062423E-5
         1768.532     3.438846E-5
         1770.482     3.819393E-5
         1772.434     4.204360E-5
         1774.387     4.593450E-5
         1776.343     4.986539E-5
         1778.301     5.383993E-5
         1780.262     5.785956E-5
         1782.224     6.192358E-5
         1784.189     6.603322E-5
         1786.156     7.018673E-5
         1788.124     7.438228E-5
         1790.096     7.862661E-5
         1792.068     8.292089E-5
         1794.044     8.726319E-5
         1796.022     9.165168E-5
         1798.001     9.608447E-5
         1799.984     1.005684E-4
         1801.968     1.051071E-4
         1803.954     1.096941E-4
         1805.942     1.143275E-4
         1807.933     1.190116E-4
         1809.926     1.237448E-4
         1811.922     1.285411E-4
         1813.919     1.333882E-4
         1815.918     1.382838E-4
          1817.92     1.432332E-4
         1819.925     1.482363E-4
          1821.93     1.533016E-4
         1823.938     1.584227E-4
         1825.948     1.635949E-4
         1827.962     1.688260E-4
         1829.976     1.741060E-4
         1831.995     1.794638E-4
         1834.013     1.848720E-4
         1836.035     1.903391E-4
         1838.059     1.958626E-4
         1840.084     2.014409E-4
         1842.113     2.070980E-4
         1844.144     2.128134E-4
         1846.177     2.185875E-4
         1848.212     2.244210E-4
         1850.248     2.362009E-4
         1852.288     2.766005E-4
          1854.33     2.398485E-4
         1856.375     2.541099E-4
         1858.421     2.766959E-4
         1860.469     2.871882E-4
          1862.52     2.974859E-4
         1864.573     2.955443E-4
         1866.628     3.058241E-4
         1868.686     3.016765E-4
         1870.746     3.172810E-4
         1872.808     3.446914E-4
         1874.872     3.555976E-4
         1876.939     3.741466E-4
         1879.008     3.985137E-4
         1881.079     4.087039E-4
         1883.153     4.223354E-4
         1885.229     4.398032E-4
         1887.307     4.423920E-4
         1889.387     4.544798E-4
         1891.471     4.720373E-4
         1893.555     5.061640E-4
         1895.643     5.247762E-4
         1897.732     5.434832E-4
         1899.823     5.666000E-4
         1901.919     5.781291E-4
         1904.014     5.901043E-4
         1906.113     6.188286E-4
         1908.215     6.379632E-4
         1910.317     6.661827E-4
         1912.424     6.822551E-4
         1914.532     7.032024E-4
         1916.643     7.253750E-4
         1918.755     7.506838E-4
          1920.87     7.770544E-4
         1922.988     7.949441E-4
         1925.107     8.193328E-4
          1927.23     8.492559E-4
         1929.354     8.802837E-4
         1931.481     9.032850E-4
          1933.61     9.214484E-4
          1935.74     9.620845E-4
         1937.875     9.864558E-4
         1940.011     0.001023086
         1942.149     0.001049805
          1944.29     0.001070473
         1946.434     0.001093698
          1948.58     0.001122394
         1950.728     0.001161015
         1952.878     0.001193914
          1955.03     0.001218397
         1957.185     0.001238814
         1959.343     0.001274466
         1961.503     0.001308009
         1963.665      0.00133519
         1965.829     0.001371577
         1967.996     0.001411996
         1970.167     0.001440331
         1972.339     0.001459582
         1974.512     0.001497649
         1976.689     0.001534034
         1978.868     0.001556084
         1981.049         0.00159
         1983.233     0.001611017
         1985.418     0.001645655
         1987.607     0.001676018
         1989.798     0.001702253
         1991.992     0.001738311
         1994.188      0.00177166
         1996.386     0.001786318
         1998.586     0.001823491
         2000.789     0.001841656
         2002.996     0.001874142
         2005.203     0.001907074
         2007.414     0.001928308
         2009.627     0.001956663
         2011.841     0.001993296
          2014.06     0.002018387
         2016.279     0.002030686
         2018.502     0.002057111
         2020.727     0.002080914
         2022.955     0.002105119
         2025.185     0.002135369
         2027.417     0.002165075
         2029.652     0.002181781
         2031.889     0.002209181
         2034.129     0.002221331
         2036.371     0.002249751
         2038.616     0.002269402
         2040.864     0.002285238
         2043.112     0.002312041
         2045.365     0.002326218
         2047.621     0.002347364
         2049.877     0.002377057
         2052.137     0.002385922
         2054.399     0.002409075
         2056.664     0.002434049
         2058.931     0.002451878
         2061.201     0.002461905
         2063.472     0.002474241
         2065.747     0.002497616
         2068.024     0.002511521
         2070.304     0.002520422
         2072.586     0.002533299
         2074.871     0.002553967
         2077.157      0.00256423
         2079.447       0.0025757
          2081.74     0.002594073
         2084.034      0.00260973
         2086.332     0.002619446
         2088.632     0.002631838
         2090.933     0.002647824
          2093.24     0.002651641
         2095.546     0.002664298
         2097.856     0.002681621
         2100.169     0.002687803
         2102.483     0.002702846
         2104.802     0.002714882
         2107.121     0.002724551
         2109.444     0.002729351
         2111.769      0.00274685
         2114.097     0.002744269
         2116.428     0.002764254
          2118.76     0.002768287
         2121.097     0.002777378
         2123.434      0.00278602
         2125.775     0.002793336
         2128.118     0.002801563
         2130.463     0.002809109
         2132.813     0.002811738
         2135.163     0.002820355
         2137.518     0.002818934
         2139.875     0.002829156
         2142.231     0.002831082
         2144.594     0.002839686
         2146.958     0.002836382
         2149.325     0.002841821
         2151.693      0.00285208
         2154.065       0.0028594
          2156.44      0.00286283
         2158.817      0.00286225
         2161.197     0.002862664
         2163.578     0.002859364
         2165.964     0.002860734
         2168.353     0.002859731
         2170.743     0.002854659
         2173.135     0.002865817
         2175.529     0.002867629
         2177.929      0.00286117
         2180.329     0.002857768
         2182.733     0.002858712
         2185.138     0.002851496
         2187.547     0.002853716
         2189.959     0.002845506
         2192.372     0.002841295
         2194.789      0.00283809
         2197.208     0.002831587
         2199.632     0.002821858
         2202.056     0.002832561
         2204.482     0.002846174
         2206.912     0.002854759
         2209.345     0.002867553
         2211.782     0.002876881
         2214.219     0.002884165
          2216.66     0.002896022
         2219.104      0.00290694
         2221.549     0.002914891
         2223.998      0.00291921
         2226.449      0.00292731
         2228.904     0.002937244
         2231.361     0.002944122
          2233.82     0.002943404
         2236.284     0.002946202
         2238.748     0.002946514
         2241.217     0.002949369
         2243.687     0.002954079
         2246.159     0.002950452
         2248.636     0.002951948
         2251.114      0.00295076
         2253.597     0.002947947
          2256.08     0.002944672
         2258.567     0.002941293
         2261.057     0.002935475
         2263.548     0.002929106
         2266.045     0.002915692
         2268.542     0.002909272
         2271.042     0.002909413
         2273.546     0.002900039
         2276.051     0.002894609
         2278.562     0.002874663
         2281.072     0.002870205
         2283.588     0.002853254
         2286.104     0.002847975
         2288.623     0.002830115
         2291.147     0.002810858
         2293.672     0.002803202
         2296.202     0.002781703
         2298.732     0.002764298
         2301.266     0.002749067
         2303.803      0.00272498
         2306.342     0.002708465
         2308.885     0.002693475
         2311.431     0.002681189
         2313.979     0.002643437
          2316.53     0.002630671
         2319.082     0.002608381
         2321.639     0.002577228
         2324.198      0.00255002
          2326.76     0.002532032
         2329.325     0.002509526
         2331.892     0.002475696
         2334.463     0.002450952
         2337.038     0.002420915
         2339.613     0.002394633
         2342.193     0.002364643
         2344.774     0.002333109
         2347.357     0.002302783
         2349.947      0.00226803
         2352.536     0.002235255
         2355.131     0.002204166
         2357.726     0.002173193
         2360.326     0.002142041
         2362.927     0.002104699
         2365.531     0.002068725
          2368.14      0.00203512
         2370.749     0.002002884
         2373.364     0.001969367
         2375.979      0.00193098
         2378.598     0.001894923
          2381.22     0.001859957
         2383.844     0.001823018
         2386.473     0.001786795
         2389.103     0.001751846
         2391.737     0.001716471
         2394.373     0.001678833
         2397.012     0.001642393
         2399.656     0.001608848
           2402.3     0.001577624
         2404.949     0.001539448
           2407.6     0.001501037
         2410.252     0.001467669
          2412.91     0.001434727
          2415.57     0.001399897
         2418.233     0.001366123
         2420.898      0.00133061
         2423.567     0.001300309
         2426.238     0.001272443
         2428.913     0.001239194
         2431.591     0.001208281
         2434.271     0.001176554
         2436.954     0.001144821
         2439.641     0.001117408
         2442.331     0.001084578
         2445.022     0.001058283
         2447.718      0.00103007
         2450.416     0.001002016
         2453.117     9.744618E-4
         2455.822     9.468439E-4
         2458.528     9.242186E-4
         2461.239     8.978347E-4
         2463.951     8.725513E-4
         2466.669     8.536478E-4
         2469.387     8.209868E-4
         2472.108     7.982787E-4
         2474.834     7.786361E-4
         2477.561     7.587961E-4
         2480.294     7.386567E-4
         2483.027     7.178202E-4
         2485.764     6.967483E-4
         2488.504     6.754494E-4
         2491.246     6.564161E-4
         2493.994     6.401539E-4
         2496.742     6.237336E-4
         2499.494     6.071263E-4
          2502.25     5.900001E-4
         2505.007     5.726250E-4
          2507.77     5.550486E-4
         2510.533     5.381908E-4
         2513.302     5.248647E-4
         2516.072     5.114088E-4
         2518.844     4.978100E-4
         2521.622     4.839609E-4
         2524.401     4.699145E-4
         2527.185     4.557073E-4
         2529.969     4.413652E-4
         2532.759     4.303824E-4
         2535.551     4.193215E-4
         2538.344     4.077041E-4
         2541.144     3.954742E-4
         2543.946     3.831195E-4
          2546.75     3.706976E-4
         2549.558     3.582075E-4
         2552.367     3.483043E-4
          2555.18     3.388371E-4
         2557.997     3.293169E-4
         2560.817     3.196904E-4
         2563.639     3.098850E-4
         2566.465     3.000204E-4
         2569.294     2.901019E-4
         2572.128     2.818783E-4
         2574.962     2.741991E-4
           2577.8     2.664775E-4
         2580.643     2.587151E-4
         2583.486     2.509510E-4
         2586.336     2.431357E-4
         2589.186     2.352858E-4
         2592.039     2.287889E-4
         2594.897     2.228092E-4
         2597.757     2.168017E-4
         2600.622     2.107268E-4
         2603.487     2.045247E-4
         2606.357     1.982843E-4
         2609.231     1.920089E-4
         2612.106     1.868458E-4
         2614.985     1.820696E-4
          2617.87     1.772632E-4
         2620.754     1.724071E-4
         2623.643     1.674435E-4
         2626.536     1.624514E-4
         2629.431     1.574308E-4
         2632.328     1.533537E-4
         2635.232     1.494863E-4
         2638.135     1.456000E-4
         2641.045     1.417032E-4
         2643.955     1.378171E-4
          2646.87     1.339060E-4
         2649.788     1.299723E-4
         2652.708     1.268478E-4
         2655.633     1.237668E-4
          2658.56     1.206703E-4
          2661.49     1.175320E-4
         2664.424     1.143532E-4
          2667.36     1.111573E-4
         2670.302     1.080173E-4
         2673.244     1.055437E-4
         2676.193     1.030526E-4
         2679.142     1.005492E-4
         2682.094     9.796962E-5
         2685.052     9.534703E-5
         2688.012     9.271048E-5
         2690.975     9.027221E-5
          2693.94     8.825763E-5
          2696.91     8.623009E-5
         2699.883     8.419048E-5
         2702.858     8.223319E-5
         2705.839     8.025816E-5
         2708.822     7.826443E-5
         2711.807     7.655970E-5
         2714.796     7.503852E-5
         2717.789     7.350171E-5
         2720.785     7.192458E-5
         2723.785     7.026127E-5
         2726.788     6.858139E-5
         2729.792     6.688572E-5
         2732.802     6.559028E-5
         2735.814     6.431290E-5
          2738.83     6.302260E-5
         2741.849     6.168587E-5
         2744.872     6.031451E-5
         2747.898     5.892959E-5
         2750.926     5.758778E-5
         2753.958     5.636586E-5
         2756.994     5.514038E-5
         2760.034     5.391070E-5
         2763.076     5.263171E-5
         2766.121     5.134963E-5
         2769.172     5.006241E-5
         2772.223     4.894693E-5
         2775.281     4.789217E-5
         2778.339     4.683539E-5
           2781.4     4.578017E-5
         2784.468     4.472660E-5
         2787.536     4.367101E-5
          2790.61     4.265468E-5
         2793.685     4.181155E-5
         2796.765     4.096562E-5
         2799.848     4.011735E-5
         2802.933     3.922197E-5
         2806.025     3.832092E-5
         2809.117     3.741828E-5
         2812.213     3.664574E-5
         2815.314     3.592421E-5
         2818.417     3.520077E-5
         2821.524     3.445171E-5
         2824.633     3.367655E-5
         2827.749     3.289853E-5
         2830.865     3.215846E-5
         2833.985     3.151843E-5
         2837.109     3.087676E-5
         2840.236     3.023626E-5
         2843.368     2.962561E-5
         2846.501     2.901397E-5
         2849.641     2.840014E-5
         2852.781     2.786990E-5
         2855.924     2.734927E-5
         2859.074     2.682678E-5
         2862.226     2.627729E-5
         2865.381     2.571562E-5
          2868.54     2.515253E-5
         2871.701     2.465309E-5
         2874.866     2.420789E-5
         2878.036     2.376158E-5
         2881.208     2.330487E-5
         2884.385     2.283179E-5
         2887.563     2.235781E-5
         2890.748     2.190796E-5
         2893.935     2.154125E-5
         2897.123     2.117385E-5
         2900.317     2.079590E-5
         2903.515     2.033187E-5
         2906.715     1.986871E-5
          2909.92     1.940637E-5
         2913.126     1.905233E-5
         2916.338     1.870147E-5
         2919.552     1.835129E-5
         2922.773     1.795913E-5
         2925.993     1.756127E-5
         2929.217     1.716417E-5
         2932.448     1.682285E-5
         2935.679     1.650019E-5
         2938.916     1.617801E-5
         2942.155     1.584837E-5
         2945.399     1.551532E-5
         2948.646     1.518293E-5
         2951.895     1.488664E-5
         2955.151     1.461587E-5
         2958.407     1.434594E-5
         2961.668     1.407023E-5
         2964.933     1.378920E-5
           2968.2     1.350890E-5
         2971.474     1.325071E-5
         2974.748     1.301985E-5
         2978.027     1.278938E-5
          2981.31     1.255450E-5
         2984.595     1.231287E-5
         2987.887     1.207157E-5
         2991.179     1.183536E-5
         2994.477     1.160729E-5
         2997.778     1.137975E-5
         3001.083     1.115663E-5
         3004.391     1.094205E-5
         3007.702     1.072808E-5
         3011.019     1.052547E-5
         3014.337     1.034845E-5
         3017.658     1.017186E-5
         3020.987     9.991905E-6
         3024.317     9.803987E-6
         3027.651     9.616523E-6
         3030.987     9.440165E-6
         3034.328     9.289290E-6
         3037.673     9.138776E-6
         3041.022     8.981346E-6
         3044.375     8.807779E-6
         3047.731     8.634666E-6
         3051.089     8.469743E-6
         3054.454     8.321056E-6
          3057.82     8.172888E-6
         3061.191     8.029217E-6
         3064.565     7.893549E-6
         3067.944     7.758230E-6
         3071.326     7.618644E-6
          3074.71     7.472339E-6
           3078.1     7.326364E-6
         3081.495     7.201375E-6
          3084.89     7.103062E-6
         3088.292     7.004903E-6
         3091.696     6.889583E-6
         3095.102     6.756987E-6
         3098.516     6.624624E-6
          3101.93     6.527730E-6
         3105.351     6.457458E-6
         3108.773     6.386890E-6
           3112.2     6.293204E-6
         3115.631     6.186327E-6
         3119.064     6.078961E-6
         3122.504     5.996956E-6
         3125.945     5.924356E-6
         3129.391     5.851337E-6
         3132.841     5.777905E-6
         3136.294     5.704082E-6
         3139.752     5.629878E-6
         3143.211     5.566630E-6
         3146.678     5.503868E-6
         3150.145     5.441353E-6
         3153.618     5.390131E-6
         3157.095     5.338641E-6
         3160.573     5.282861E-6
         3164.059     5.206135E-6
         3167.546     5.129098E-6
         3171.039     5.055266E-6
         3174.533     4.989825E-6
         3178.031     4.924053E-6
         3181.536     4.863391E-6
         3185.044     4.809525E-6
         3188.555     4.755381E-6
         3192.068     4.700958E-6
         3195.587     4.646206E-6
          3199.11     4.591173E-6
         3202.637     4.535855E-6
         3206.167     4.480255E-6
           3209.7     4.424397E-6
         3213.239     4.368275E-6
         3216.781     4.311872E-6
         3220.327     4.257556E-6
         3223.877     4.226438E-6
         3227.431     4.195147E-6
         3230.989     4.156448E-6
         3234.549     4.098709E-6
         3238.115     4.040643E-6
         3241.685     3.994719E-6
         3245.259     3.962500E-6
         3248.836     3.930109E-6
         3252.418     3.879613E-6
         3256.003     3.820202E-6
         3259.591     3.760519E-6
         3263.186     3.712340E-6
         3266.781     3.665489E-6
         3270.383     3.619804E-6
         3273.988     3.585991E-6
         3277.596     3.552014E-6
         3281.209     3.517827E-6
         3284.826     3.483437E-6
         3288.449     3.448847E-6
         3292.073     3.406308E-6
           3295.7     3.357688E-6
         3299.335     3.308767E-6
          3302.97     3.270934E-6
         3306.614     3.235400E-6
         3310.257     3.200696E-6
         3313.906     3.178754E-6
         3317.559     3.156692E-6
         3321.215     3.129863E-6
         3324.878     3.093469E-6
         3328.542     3.056924E-6
         3332.211     3.020192E-6
         3335.885     2.983282E-6
          3339.56     2.946199E-6
         3343.244     2.921464E-6
         3346.927     2.898329E-6
         3350.619     2.870226E-6
         3354.311     2.818044E-6
         3358.007     2.765591E-6
          3361.71     2.732906E-6
         3365.415     2.723531E-6
         3369.126     2.714087E-6
         3372.839     2.682276E-6
         3376.557     2.643387E-6
         3380.279     2.606502E-6
         3384.004     2.596724E-6
         3387.736     2.586874E-6
         3391.469     2.559472E-6
         3395.208     2.504851E-6
         3398.953     2.449916E-6
         3402.698     2.416326E-6
         3406.449     2.390941E-6
         3410.204     2.365416E-6
         3413.964     2.339760E-6
         3417.727     2.313966E-6
         3421.493     2.288057E-6
         3425.265     2.262015E-6
         3429.043     2.235817E-6
         3432.821     2.209528E-6
         3436.606     2.183089E-6
         3440.394     2.156504E-6
         3444.185     2.129798E-6
         3447.984     2.102917E-6
         3451.783     2.083240E-6
         3455.588     2.071753E-6
         3459.398     2.060196E-6
         3463.211     2.035335E-6
         3467.029     2.007843E-6
          3470.85     1.980221E-6
         3474.678     1.952446E-6
         3478.506     1.924545E-6
         3482.339     1.906253E-6
          3486.18     1.894095E-6
         3490.023     1.881871E-6
         3493.871     1.869582E-6
          3497.72     1.857224E-6
         3501.576     1.838164E-6
         3505.437     1.809393E-6
         3509.301     1.780458E-6
          3513.17     1.764808E-6
         3517.041     1.752046E-6
         3520.918     1.739200E-6
         3524.799     1.726284E-6
         3528.685     1.713288E-6
         3532.575     1.700246E-6
         3536.468     1.687148E-6
         3540.368     1.672373E-6
         3544.269     1.642303E-6
         3548.176     1.612048E-6
         3552.088     1.590661E-6
         3556.004     1.577073E-6
         3559.924     1.563402E-6
         3563.846     1.549680E-6
         3567.777     1.535861E-6
         3571.708     1.521972E-6
         3575.644     1.508002E-6
         3579.588     1.493934E-6
         3583.534     1.479808E-6
         3587.484     1.465600E-6
         3591.439     1.451305E-6
         3595.396     1.436934E-6
          3599.36     1.422467E-6
         3603.328     1.407930E-6
         3607.301     1.393307E-6
         3611.277     1.378592E-6
         3615.256     1.363786E-6
         3619.242     1.348883E-6
         3623.234     1.333911E-6
         3627.226     1.318870E-6
         3631.223     1.303732E-6
         3635.228     1.288479E-6
         3639.237     1.273134E-6
         3643.247     1.257712E-6
         3647.261     1.242197E-6
         3651.284     1.232440E-6
         3655.307     1.235174E-6
         3659.335     1.237914E-6
         3663.371     1.209684E-6
         3667.408     1.175191E-6
         3671.453     1.153876E-6
         3675.498     1.156443E-6
         3679.552     1.159019E-6
         3683.606     1.144843E-6
         3687.665     1.128492E-6
         3691.732     1.112027E-6
           3695.8     1.095480E-6
         3699.876     1.078817E-6
         3703.953     1.062070E-6
         3708.039     1.045207E-6
         3712.124     1.038286E-6
         3716.215     1.040607E-6
         3720.313     1.041450E-6
         3724.413     1.024304E-6
         3728.521     1.007038E-6
         3732.629     1.002231E-6
         3736.746     1.004478E-6
         3740.863     1.002591E-6
         3744.985     9.850329E-7
         3749.116     9.673527E-7
         3753.247     9.652542E-7
         3757.386     9.674217E-7
         3761.526     9.621883E-7
         3765.675     9.441792E-7
         3769.824     9.260822E-7
         3773.978     9.078882E-7
         3778.141     8.895678E-7
         3782.304     8.824450E-7
         3786.473     8.844171E-7
         3790.648     8.832027E-7
         3794.824     8.645513E-7
          3799.01     8.457711E-7
         3803.196     8.427513E-7
         3807.389     8.446361E-7
         3811.586     8.386240E-7
          3815.79     8.195100E-7
         3819.994     8.003014E-7
         3824.203     8.020414E-7
         3828.419     8.038145E-7
          3832.64     7.923011E-7
         3836.865     7.727317E-7
         3841.095     7.585859E-7
         3845.331     7.602630E-7
         3849.568     7.619425E-7
          3853.81     7.636165E-7
         3858.058     7.652937E-7
         3862.312     7.551500E-7
         3866.572     7.349694E-7
         3870.832     7.189661E-7
         3875.099     7.205346E-7
         3879.369     7.221056E-7
         3883.646     7.048274E-7
         3887.927     6.841772E-7
         3892.213     6.748976E-7
         3896.504     6.763589E-7
           3900.8     6.778217E-7
           3905.1     6.792795E-7
         3909.403     6.807398E-7
         3913.712     6.627135E-7
         3918.027     6.414396E-7
         3922.346     6.324053E-7
          3926.67     6.337455E-7
         3930.999     6.350884E-7
         3935.333     6.364326E-7
         3939.669     6.377792E-7
         3944.012     6.177457E-7
          3948.36     5.958302E-7
         3952.712     5.882995E-7
          3957.07     5.895255E-7
         3961.432     5.907479E-7
         3965.799     5.919610E-7
         3970.169     5.922637E-7
         3974.546     5.698279E-7
         3978.927     5.472713E-7
         3983.314     5.425662E-7
         3987.705     5.436686E-7
         3992.101     5.447650E-7
           3996.5     5.458546E-7
         4000.906     5.466997E-7
         4005.316     5.465889E-7
         4009.732     5.464774E-7
         4014.152     5.236705E-7
         4018.577     4.993803E-7
         4023.008     4.914920E-7
          4027.44     4.913706E-7
          4031.88     4.912450E-7
         4036.325     4.911136E-7
         4040.775     4.909798E-7
         4045.229     4.908380E-7
         4049.689     4.906956E-7
         4054.153     4.679077E-7
          4058.62     4.434219E-7
         4063.094     4.357615E-7
         4067.574     4.356168E-7
         4072.058     4.354679E-7
         4076.547     4.353138E-7
         4081.041     4.351575E-7
         4085.538     4.349948E-7
         4090.042     4.348314E-7
         4094.548     4.346661E-7
         4099.064     4.344999E-7
         4103.583     4.148699E-7
         4108.107     3.901466E-7
         4112.636     3.797136E-7
         4117.165     3.795530E-7
         4121.706     3.793871E-7
          4126.25     3.792135E-7
         4130.799     3.790390E-7
         4135.353     3.788628E-7
         4139.911     3.786861E-7
         4144.473     3.785078E-7
          4149.04     3.783290E-7
         4153.616     3.586078E-7
         4158.195     3.337020E-7
         4162.779     3.237899E-7
         4167.366     3.236238E-7
         4171.962     3.234546E-7
         4176.559     3.232817E-7
         4181.163     3.231081E-7
         4185.772     3.229335E-7
         4190.385     3.227582E-7
         4195.006     3.225772E-7
         4199.629     3.223960E-7
         4204.261     3.227095E-7
         4208.894     3.230665E-7
         4213.531     3.234232E-7
         4218.178     3.237808E-7
         4222.826     3.088674E-7
         4227.484     2.840142E-7
         4232.142     2.707007E-7
          4236.81     2.709952E-7
         4241.478     2.712884E-7
         4246.151     2.715790E-7
         4250.835     2.718701E-7
         4255.519     2.721610E-7
         4260.212     2.724524E-7
         4264.907     2.727394E-7
         4269.606     2.730268E-7
         4274.315     2.733146E-7
         4279.025     2.736025E-7
         4283.744     2.738873E-7
         4288.464     2.741714E-7
         4293.194     2.744557E-7
         4297.925     2.747398E-7
         4302.661     2.603873E-7
         4307.406     2.345237E-7
         4312.152     2.204670E-7
         4316.909     2.206919E-7
         4321.665     2.209168E-7
         4326.432     2.211420E-7
         4331.199     2.213672E-7
         4335.971     2.215923E-7
         4340.753     2.218174E-7
         4345.537     2.220395E-7
          4350.33     2.222620E-7
         4355.123     2.224812E-7
         4359.926     2.227010E-7
          4364.73     2.229235E-7
          4369.54     2.231464E-7
         4374.359     2.233667E-7
         4379.179     2.235867E-7
         4384.009     2.238069E-7
          4388.84     2.240273E-7
          4393.68     2.242453E-7
         4398.521     2.244624E-7
         4403.368     2.057628E-7
         4408.225     1.786568E-7
         4413.082     1.688413E-7
          4417.95     1.690048E-7
         4422.817     1.691682E-7
         4427.696     1.693321E-7
         4432.574     1.694945E-7
         4437.458     1.696557E-7
         4442.353     1.698184E-7
         4447.248     1.699824E-7
         4452.153     1.701455E-7
         4457.059     1.703071E-7
          4461.97     1.704689E-7
         4466.891     1.706310E-7
         4471.813     1.707931E-7
         4476.745     1.709554E-7
         4481.678     1.711178E-7
         4486.618     1.712803E-7
         4491.564     1.714431E-7
         4496.514     1.716057E-7
         4501.473     1.719718E-7
         4506.433     1.728187E-7
         4511.401     1.736665E-7
         4516.375     1.745137E-7
         4521.355     1.753630E-7
         4526.337     1.762144E-7
         4531.325     1.770663E-7
          4536.32     1.779180E-7
         4541.321     1.787707E-7
         4546.328     1.796245E-7
         4551.339     1.724225E-7
         4556.357     1.429135E-7
          4561.38     1.214653E-7
         4566.406     1.220372E-7
          4571.44     1.226103E-7
         4576.479     1.231839E-7
         4581.527     1.237587E-7
         4586.575     1.243336E-7
         4591.632     1.249096E-7
         4596.691     1.254861E-7
         4601.758     1.260636E-7
         4606.832     1.266419E-7
          4611.91     1.272209E-7
         4616.994     1.278007E-7
         4622.084     1.283805E-7
          4627.18     1.289599E-7
         4632.278     1.295406E-7
         4637.385     1.301235E-7
         4642.497     1.307071E-7
         4647.615     1.312915E-7
         4652.738     1.318767E-7
         4657.868     1.324626E-7
         4663.002     1.330480E-7
         4668.141     1.336332E-7
         4673.287     1.342207E-7
         4678.438     1.348097E-7
         4683.596     1.353995E-7
         4688.759     1.359901E-7
         4693.928     1.365798E-7
           4699.1     1.371695E-7
         4704.281     1.377620E-7
         4709.467     1.383557E-7
         4714.658     1.389482E-7
         4719.856     1.395414E-7
         4725.059     1.401372E-7
         4730.268     1.407339E-7
          4735.48     1.413290E-7
         4740.701     1.419256E-7
         4745.927     1.425247E-7
         4751.159     1.431242E-7
         4756.396     1.437226E-7
          4761.64     1.443225E-7
         4766.889     1.449248E-7
         4772.142     1.455276E-7
         4777.402     1.461315E-7
         4782.669     1.467351E-7
         4787.941     1.473383E-7
          4793.22     1.479437E-7
         4798.504     1.485508E-7
         4803.791     1.491583E-7
         4809.087     1.497670E-7
         4814.389     1.173773E-7
         4819.696     7.778763E-8
         4825.009     7.579669E-8
         4830.328     7.610263E-8
         4835.653     7.640896E-8
         4840.981     7.671554E-8
         4846.318     7.702275E-8
         4851.661     7.732992E-8
         4857.009     7.763658E-8
         4862.364     7.794423E-8
         4867.724     7.825307E-8
          4873.09     7.856223E-8
         4878.457     7.887149E-8
         4883.838     7.918162E-8
         4889.222     7.949205E-8
         4894.612     7.980285E-8
         4900.008     8.011405E-8
         4905.409     8.042696E-8
         4910.814     8.073994E-8
         4916.228     8.105238E-8
         4921.648     8.136526E-8
         4927.074     8.167852E-8
         4932.505     8.199218E-8
          4937.94     8.230606E-8
         4943.386     8.262156E-8
         4948.833     8.293772E-8
         4954.289     8.325441E-8
          4959.75     8.357152E-8
         4965.216     8.388757E-8
         4970.692     8.420445E-8
         4976.169     8.452270E-8
         4981.658     8.484171E-8
         4987.146     8.516076E-8
         4992.642     8.548024E-8
         4998.148     8.580047E-8
         5003.656     8.616421E-8
         5009.174     8.655083E-8
         5014.694     8.693763E-8
         5020.219     8.732502E-8
         5025.756     8.771470E-8
         5031.294     8.810420E-8
         5036.843     8.849354E-8
         5042.394     8.888365E-8
         5047.955     8.927547E-8
         5053.517     8.966651E-8
         5059.085     9.005748E-8
         5064.665     9.045068E-8
         5070.246     9.084431E-8
         5075.838     9.123884E-8
         5081.431     9.163310E-8
         5087.036     9.202716E-8
         5092.641     9.242208E-8
         5098.252     9.281839E-8
         5103.875     9.321562E-8
         5109.499     9.361302E-8
         5115.134     9.401137E-8
         5120.771     9.440989E-8
         5126.418     9.480929E-8
         5132.067     9.520831E-8
         5137.722     9.560687E-8
         5143.389     9.600729E-8
         5149.056     9.640853E-8
         5154.735     9.681078E-8
         5160.415     9.721315E-8
         5166.107     9.761643E-8
         5171.799     9.801987E-8
         5177.498     9.842393E-8
         5183.208     9.882797E-8
         5188.919     9.923141E-8
         5194.643     9.963713E-8
         5200.366     1.000432E-7
         5206.102     1.004487E-7
         5211.838     1.008549E-7
         5217.581     1.012628E-7
         5223.336     1.016706E-7
         5229.091     1.020780E-7
         5234.859     1.024862E-7
         5240.627     1.028946E-7
         5246.407     1.033039E-7
         5252.188     1.037140E-7
         5257.975     1.041258E-7
         5263.774     1.045363E-7
         5269.574     1.049455E-7
         5275.383     1.053572E-7
         5281.199     1.057696E-7
         5287.018     1.061824E-7
          5292.85     1.065953E-7
         5298.682     1.070073E-7
         5304.523     1.074200E-7
         5310.371     1.078334E-7
         5316.228     1.082493E-7
         5322.085     1.086641E-7
          5327.95     1.090768E-7
         5333.826     1.094918E-7
         5339.703     1.099075E-7
          5345.59     1.103240E-7
         5351.483     1.107406E-7
         5357.385     1.111564E-7
         5363.289     1.115723E-7
         5369.198     1.119888E-7
         5375.117     5.488490E-8
         5381.042     1.176130E-8
         5386.978     7.901281E-8
         5392.914     8.054172E-8
         5398.858     1.302265E-8
         5404.807              0.
         5410.766              0.
          5416.73              0.
         5422.702              0.
          5428.68              0.
         5434.665              0.
         5440.656              0.
         5446.651              0.
         5452.655              0.
         5458.666              0.
         5464.684              0.
         5470.708              0.
         5476.739              0.
         5482.777              0.
         5488.818              0.
         5494.869              0.
         5500.926              0.
         5506.991              0.
         5513.062              0.
         5519.139              0.
         5525.221              0.
         5531.312              0.
          5537.41              0.
         5543.514              0.
         5549.625              0.
         5555.743              0.
         5561.868              0.
         5567.996              0.
         5574.134              0.
         5580.279              0.
         5586.431              0.
          5592.59              0.
         5598.755              0.
         5604.927              0.
         5611.103              0.
         5617.289              0.
         5623.481              0.
         5629.681              0.
         5635.887              0.
           5642.1              0.
         5648.316              0.
         5654.543              0.
         5660.777              0.
         5667.018              0.
         5673.265              0.
         5679.519              0.
          5685.78              0.
         5692.045              0.
          5698.32              0.
         5704.602              0.
         5710.891              0.
         5717.187              0.
         5723.489              0.
         5729.799              0.
         5736.112              0.
         5742.436              0.
         5748.766              0.
         5755.104              0.
         5761.448              0.
           5767.8              0.
         5774.155              0.
         5780.521              0.
         5786.893              0.
         5793.272              0.
         5799.659              0.
         5806.053              0.
         5812.453              0.
         5818.858              0.
         5825.272              0.
         5831.694              0.
         5838.123              0.
         5844.559              0.
         5851.002              0.
         5857.453              0.
         5863.907              0.
         5870.368              0.
         5876.843              0.
         5883.321              0.
         5889.807              0.
           5896.3              0.
           5902.8              0.
         5909.304              0.
         5915.819              0.
          5922.34              0.
         5928.869              0.
         5935.405              0.
         5941.945              0.
         5948.492              0.
         5955.053              0.
         5961.618              0.
          5968.19              0.
         5974.767              0.
         5981.356              0.
         5987.947              0.
         5994.548              0.
         6001.157              0.
         6007.769              0.
         6014.396              0.
         6021.022              0.
         6027.663              0.
         6034.308              0.
         6040.954              0.
         6047.617              0.
          6054.28              0.
         6060.958              0.
         6067.636              0.
         6074.329              0.
         6081.021              0.
         6087.722              0.
         6094.437              0.
         6101.152              0.
         6107.878              0.
         6114.611              0.
         6121.355              0.
           6128.1              0.
         6134.853              0.
         6141.616              0.
         6148.386              0.
         6155.167              0.
          6161.95              0.
         6168.746              0.
          6175.54              0.
         6182.348              0.
         6189.163              0.
         6195.986              0.
          6202.82              0.
         6209.655              0.
         6216.497              0.
          6223.35              0.
         6230.211              0.
         6237.083              0.
         6243.955              0.
         6250.838              0.
         6257.729              0.
         6264.624              0.
          6271.53              0.
         6278.444              0.
         6285.366              0.
         6292.294              0.
         6299.231              0.
         6306.176              0.
         6313.124              0.
         6320.084              0.
         6327.051              0.
         6334.026              0.
         6341.009              0.
         6347.999              0.
         6354.994              0.
            6362.              0.
         6369.013              0.
         6376.034              0.
         6383.063              0.
           6390.1              0.
         6397.145              0.
         6404.193              0.
         6411.253              0.
         6418.321              0.
         6425.397              0.
          6432.48              0.
         6439.571              0.
          6446.67              0.
         6453.774              0.
         6460.889              0.
         6468.011              0.
         6475.142              0.
          6482.28              0.
         6489.426              0.
         6496.576              0.
         6503.738              0.
         6510.908              0.
         6518.085              0.
         6525.271              0.
         6532.465              0.
         6539.666              0.
         6546.872              0.
         6554.089              0.
         6561.314              0.
         6568.548              0.
         6575.789              0.
         6583.038              0.
         6590.295              0.
         6597.557              0.
          6604.83              0.
         6612.111              0.
           6619.4              0.
         6626.698              0.
         6634.003              0.
         6641.316              0.
         6648.634              0.
         6655.964              0.
         6663.301              0.
         6670.647              0.
         6678.001              0.
         6685.363              0.
         6692.729              0.
         6700.107              0.
         6707.494              0.
         6714.888              0.
         6722.291              0.
         6729.701              0.
          6737.12              0.
         6744.543              0.
         6751.979              0.
         6759.422              0.
         6766.874              0.
         6774.333              0.
         6781.802              0.
         6789.278              0.
         6796.759              0.
         6804.251              0.
         6811.752              0.
         6819.262              0.
          6826.78              0.
         6834.306              0.
         6841.836              0.
         6849.378              0.
         6856.929              0.
         6864.488              0.
         6872.056              0.
         6879.632              0.
         6887.216              0.
         6894.805              0.
         6902.405              0.
         6910.015              0.
         6917.632              0.
         6925.258              0.
         6932.893              0.
         6940.536              0.
         6948.183              0.
         6955.839              0.
         6963.511              0.
         6971.188              0.
         6978.873              0.
         6986.566              0.
         6994.261     1.611623E-8
         7001.975     3.771734E-8
         7009.694     3.756500E-8
         7017.422     3.741217E-8
         7025.158     3.726019E-8
         7032.902     3.710913E-8
         7040.652     3.695896E-8
          7048.41     3.680831E-8
         7056.184     3.665855E-8
         7063.962     3.650938E-8
          7071.75     3.636053E-8
         7079.542     3.621200E-8
          7087.35     3.606367E-8
          7095.16     3.591634E-8
         7102.981     3.581492E-8
         7110.812     3.578701E-8
         7118.647     3.575856E-8
         7126.499     3.572978E-8
         7134.351     3.570100E-8
          7142.22     3.567183E-8
         7150.089     3.564174E-8
         7157.968     3.561198E-8
         7165.863     3.558181E-8
         7173.758     3.555168E-8
         7181.671     3.552131E-8
         7189.584     3.548978E-8
         7197.514     3.545872E-8
         7205.444     3.541296E-8
         7213.384     3.536038E-8
          7221.34     3.530765E-8
         7229.297     3.525534E-8
         7237.271     3.520194E-8
         7245.245     3.514879E-8
         7253.236     3.509555E-8
         7261.228     3.504200E-8
         7269.229     3.498824E-8
         7277.243     3.493493E-8
         7285.265     3.488086E-8
           7293.3     3.482653E-8
         7301.336     3.474191E-8
         7309.381     3.450428E-8
         7317.439     3.426837E-8
         7325.506     3.403281E-8
         7333.586     3.379813E-8
         7341.667     3.356505E-8
         7349.764     3.333256E-8
         7357.863     3.310127E-8
          7365.97     3.287150E-8
          7374.09     3.264230E-8
         7382.219     3.241379E-8
         7390.362     3.218659E-8
         7398.505     3.196062E-8
         7406.661     3.194877E-8
         7414.826     3.198375E-8
         7422.996     3.201783E-8
         7431.184     3.205168E-8
         7439.372     3.208546E-8
         7447.573     3.211758E-8
         7455.783     3.214940E-8
         7464.002     3.218065E-8
         7472.231     3.221108E-8
         7480.464     3.224063E-8
          7488.71     3.226940E-8
         7496.966     3.229812E-8
         7505.231     3.218532E-8
         7513.505     3.199117E-8
         7521.788     3.179765E-8
         7530.076     3.160480E-8
         7538.377     3.141250E-8
         7546.688     3.122075E-8
         7555.007     3.102963E-8
         7563.335     3.083906E-8
         7571.673     3.064904E-8
         7580.021     3.045970E-8
         7588.373     3.027110E-8
         7596.738     3.008300E-8
         7605.113     3.001303E-8
         7613.497     3.001760E-8
          7621.89     3.002141E-8
         7630.292     3.002457E-8
         7638.704     3.002696E-8
         7647.121     3.002862E-8
         7655.551     3.002961E-8
         7663.991     3.002990E-8
         7672.439     3.002944E-8
         7680.897     3.002831E-8
         7689.365     3.002640E-8
         7697.838     3.002388E-8
         7706.324     3.049888E-8
         7714.819     3.113282E-8
         7723.324     3.176146E-8
         7731.838     3.238473E-8
         7740.362     3.300275E-8
         7748.895     3.361544E-8
         7757.434     3.422260E-8
         7765.985     3.482474E-8
         7774.546     3.542159E-8
         7783.117     3.601320E-8
         7791.697     3.659954E-8
         7800.287     3.716485E-8
         7808.886     3.726907E-8
          7817.49     3.737142E-8
         7826.108     3.747222E-8
         7834.736     3.757132E-8
         7843.373     3.766872E-8
          7852.02     3.776444E-8
         7860.676     3.785844E-8
         7869.337     3.795076E-8
         7878.013     3.804138E-8
         7886.697     3.813041E-8
         7895.392     3.821777E-8
         7904.096     3.838001E-8
         7912.809     3.862582E-8
         7921.532     3.886872E-8
         7930.261     3.910862E-8
         7939.003     3.934575E-8
         7947.755     3.958009E-8
         7956.517     3.981156E-8
         7965.288     4.004020E-8
         7974.069     4.026599E-8
          7982.86     4.048895E-8
         7991.656     4.070900E-8
         8000.466     4.089548E-8
         8009.286     4.052802E-8
         8018.115     4.016233E-8
         8026.954     3.979838E-8
         8035.803     3.943611E-8
         8044.658     3.907568E-8
         8053.526     3.871679E-8
         8062.404     3.835961E-8
         8071.292     3.800413E-8
          8080.19     3.765037E-8
         8089.098     3.729826E-8
         8098.016     3.694791E-8
         8106.938     3.723862E-8
         8115.875     3.770505E-8
         8124.822     3.816286E-8
         8133.779     3.861214E-8
         8142.746     3.905290E-8
         8151.723     3.948513E-8
         8160.709     3.990887E-8
         8169.701     4.032389E-8
         8178.708     4.073062E-8
         8187.724     4.112891E-8
          8196.75     4.151877E-8
         8205.786     4.162817E-8
         8214.832     4.158091E-8
         8223.884     4.153089E-8
          8232.95     4.147809E-8
         8242.026     4.142257E-8
         8251.112     4.136433E-8
         8260.208     4.130331E-8
         8269.314     4.123957E-8
         8278.431     4.117313E-8
         8287.552     4.110402E-8
         8296.688     4.103214E-8
         8305.835     4.114763E-8
         8314.991     4.136491E-8
         8324.153     4.157519E-8
         8333.334     4.177879E-8
         8342.521     4.197548E-8
         8351.713     4.220198E-8
          8360.92     4.258439E-8
         8370.138     4.296282E-8
         8379.365     4.333723E-8
         8388.603     4.370758E-8
          8397.85     4.407375E-8
         8407.104     4.424636E-8
         8416.371     4.435871E-8
         8425.649     4.446817E-8
         8434.934     4.457469E-8
         8444.236     4.467836E-8
         8453.546     4.477899E-8
         8462.865     4.487661E-8
         8472.189     4.497118E-8
         8481.525     4.506265E-8
          8490.88     4.515109E-8
          8500.24     4.524883E-8
         8509.611     4.581452E-8
         8518.987     4.637300E-8
         8528.384     4.692501E-8
          8537.78     4.746929E-8
         8547.188     4.800635E-8
         8556.615     4.853667E-8
         8566.043     4.905896E-8
         8575.486     4.957404E-8
          8584.94     5.008150E-8
         8594.409     5.058145E-8
         8603.879     5.076085E-8
         8613.359     5.048651E-8
         8622.854     5.021037E-8
          8632.36     4.993262E-8
         8641.882     4.965313E-8
         8651.403     4.937100E-8
         8660.937     4.907978E-8
         8670.484     4.878691E-8
         8680.043     4.849255E-8
         8689.611     4.819666E-8
         8699.191     4.789919E-8
         8708.781     4.730796E-8
         8718.382     4.669130E-8
         8727.988     4.607668E-8
          8737.61     4.546347E-8
         8747.242     4.485208E-8
         8756.886     4.424249E-8
         8766.539     4.363483E-8
         8776.203     4.302909E-8
         8785.879     4.242524E-8
          8795.56     4.182372E-8
         8805.256     4.155492E-8
         8814.963     4.156250E-8
         8824.681     4.156500E-8
         8834.408     4.156242E-8
         8844.147     4.155471E-8
         8853.893     4.154176E-8
         8863.653     4.152357E-8
         8873.425     4.150009E-8
         8883.207     4.147121E-8
            8893.     4.143694E-8
         8902.804     4.131097E-8
         8912.618     4.096660E-8
         8922.438     4.062096E-8
         8932.274     4.027370E-8
         8942.122     3.992493E-8
         8951.979     3.957334E-8
         8961.849     3.921480E-8
         8971.728     3.885494E-8
         8981.618     3.849375E-8
         8991.515     3.813136E-8
         9001.427     3.780939E-8
         9011.351     3.773328E-8
         9021.284     3.765196E-8
         9031.229     3.756543E-8
         9041.186     3.747354E-8
         9051.147     3.737642E-8
         9061.126     3.727382E-8
         9071.115     3.716581E-8
         9081.115     3.705228E-8
         9091.126     3.693322E-8
         9101.148     3.680609E-8
         9111.182     3.665425E-8
         9121.221     3.649690E-8
         9131.276     3.633440E-8
         9141.343     3.616625E-8
          9151.42     3.599293E-8
         9161.509     3.581383E-8
         9171.608     3.562946E-8
         9181.719     3.543930E-8
         9191.836     3.524380E-8
          9201.97     3.493782E-8
         9212.113     3.419971E-8
          9222.27     3.346651E-8
         9232.436     3.273875E-8
         9242.613     3.201650E-8
         9252.798     3.129883E-8
         9262.998     3.058271E-8
          9273.21     2.987255E-8
         9283.433     2.916843E-8
         9293.667     2.847029E-8
         9303.912     2.803315E-8
         9314.169     2.800351E-8
         9324.432     2.796341E-8
         9334.711     2.791273E-8
         9345.002     2.785142E-8
         9355.304     2.777940E-8
         9365.617     2.769639E-8
         9375.941     2.760247E-8
         9386.278     2.749762E-8
          9396.62     2.738169E-8
         9406.979     2.684290E-8
          9417.35     2.610883E-8
         9427.731     2.538223E-8
         9438.124     2.466300E-8
         9448.529     2.395142E-8
          9458.94     2.324778E-8
         9469.368     2.255154E-8
         9479.807     2.186314E-8
         9490.258     2.118260E-8
          9500.72     2.054628E-8
         9511.193     2.040142E-8
         9521.679     2.025213E-8
          9532.17     2.009851E-8
         9542.679     1.994038E-8
         9553.198     1.977787E-8
         9563.729     1.961097E-8
         9574.272     1.943970E-8
         9584.828     1.926407E-8
         9595.395     1.908407E-8
         9605.967     1.888064E-8
         9616.557     1.865889E-8
         9627.158     1.843397E-8
         9637.771     1.820595E-8
         9648.396     1.797492E-8
         9659.032     1.774064E-8
         9669.681     1.750325E-8
         9680.335     1.726290E-8
         9691.007     1.701935E-8
          9701.69     1.677008E-8
         9712.386     1.650392E-8
         9723.093     1.623541E-8
         9733.812     1.596455E-8
         9744.536     1.569152E-8
         9755.279     1.541173E-8
         9766.033     1.512547E-8
           9776.8     1.483715E-8
         9787.577     1.454685E-8
         9798.367     1.425454E-8
         9809.169     1.399691E-8
         9819.978     1.374212E-8
         9830.803     1.348301E-8
         9841.641     1.321995E-8
          9852.49     1.295280E-8
         9863.352     1.268172E-8
         9874.225     1.240666E-8
          9885.11     1.212768E-8
         9896.003     1.184494E-8
         9906.912     1.136142E-8
         9917.828     1.077644E-8
         9928.767     1.020673E-8
         9939.713     9.652862E-9
          9950.67     9.114683E-9
         9961.634     8.592353E-9
          9972.61     8.085565E-9
          9983.61     7.593685E-9
         9994.616     7.117526E-9
         10005.63     6.804851E-9
         10016.66     6.638519E-9
         10027.71     6.473308E-9
         10038.76     6.309549E-9
         10049.82     6.147069E-9
          10060.9     5.985741E-9
         10071.99     5.825863E-9
          10083.1     5.667138E-9
         10094.21     5.509893E-9
         10105.34     4.326003E-8
         10116.47     2.612715E-8
         10127.62     3.914538E-9
         10138.79    6.014981E-10
         10149.96     9.613834E-9
         10161.16     3.107261E-8
         10172.35     1.488359E-8
         10183.56     4.368445E-9
         10194.79     8.265722E-9
         10206.03     7.306515E-9
         10217.29     3.925960E-9
         10228.54     1.024282E-8
         10239.83    1.908144E-10
         10251.11     1.515126E-8
          10262.4     2.108222E-8
         10273.72     9.282662E-9
         10285.04     3.082584E-9
         10296.39     1.065251E-9
         10307.73     2.175489E-9
          10319.1     1.732489E-8
         10330.47     2.551344E-9
         10341.85     2.422542E-9
         10353.26     2.295206E-9
         10364.67     4.195094E-9
          10376.1     2.393409E-9
         10387.53     1.448474E-9
         10398.99     1.802117E-9
         10410.45     1.984028E-9
         10421.92     8.427643E-9
         10433.41     7.177352E-9
         10444.91     1.335053E-9
         10456.43     1.222293E-9
         10467.95     1.111297E-9
          10479.5     4.807684E-9
         10491.04    9.875126E-10
          10502.6     2.454162E-9
         10514.19     3.066476E-9
         10525.77    3.227236E-10
         10537.38    5.477120E-10
         10548.99    7.208257E-10
         10560.63     3.979689E-9
         10572.26    6.792513E-10
         10583.91    6.588461E-10
         10595.59     1.352305E-9
         10607.26     1.856280E-9
         10618.96     4.481416E-9
         10630.66     2.203557E-9
         10642.38    4.273972E-10
         10654.11    2.227755E-10
         10665.85    5.229530E-10
         10677.62    5.045412E-10
         10689.38     1.399082E-9
         10701.17    5.234115E-10
         10712.96    7.681811E-10
         10724.77    4.335237E-10
          10736.6    1.417155E-10
         10748.43    6.734022E-10
         10760.27    2.064511E-11
         10772.14     1.281944E-9
         10784.01     1.891056E-9
          10795.9    3.951439E-10
         10807.81    8.877945E-10
         10819.72    3.211539E-10
         10831.65     1.977871E-9
         10843.57    2.742865E-10
         10855.53    1.160317E-10
         10867.51    1.844126E-10
         10879.48    2.317197E-10
         10891.48     1.090359E-9
         10903.48    7.383968E-10
          10915.5    2.969597E-10
         10927.52     1.164898E-9
         10939.58    2.155941E-10
         10951.64    3.861060E-10
         10963.71              0.
         10975.79    7.545715E-11
         10987.88    2.126480E-10
           11000.    4.310481E-10
