#  Table wf4f555wsys.tab  Mon 12:22:49 02-Jun-97

#      WAVELENGTH      THROUGHPUT
#       angstroms                

            1850.     6.518901E-9
         1851.651     6.113182E-7
         1853.301     1.221429E-6
         1854.956     1.838650E-6
         1856.611     2.461012E-6
         1858.267     3.089408E-6
         1859.925     3.724245E-6
         1861.584     3.857578E-6
         1863.246     3.968124E-6
         1864.909     4.079644E-6
         1866.572     4.192058E-6
         1868.237     4.305454E-6
         1869.904     4.419896E-6
         1871.573     4.421830E-6
         1873.242     4.416694E-6
         1874.913     4.411369E-6
         1876.585     4.405852E-6
          1878.26     4.400139E-6
         1879.937     4.392540E-6
         1881.613     3.910762E-6
         1883.292     3.406068E-6
         1884.973     2.896670E-6
         1886.654     2.383146E-6
         1888.338     1.864847E-6
         1890.023     1.347535E-6
         1891.709     1.221907E-6
         1893.396     1.095158E-6
         1895.086     9.672174E-7
         1896.775     8.383146E-7
         1898.469     7.080438E-7
         1900.163     6.168715E-7
         1901.857     9.024981E-7
         1903.555     1.190939E-6
         1905.254     1.481855E-6
         1906.953     1.775043E-6
         1908.655     2.070889E-6
         1910.357     2.264087E-6
         1912.061     2.061711E-6
         1913.768     1.857409E-6
         1915.476     1.651275E-6
         1917.184     1.443438E-6
         1918.894     1.233760E-6
         1920.606     1.040466E-6
          1922.32     8.787886E-7
         1924.035     7.156868E-7
         1925.752     5.512386E-7
          1927.47     3.852635E-7
         1929.189     2.179340E-7
          1930.91     1.284584E-7
         1932.634     1.091462E-7
         1934.358     8.966359E-8
         1936.084     7.002262E-8
         1937.811     5.020753E-8
          1939.54     3.020785E-8
          1941.27     1.259399E-7
         1943.003     2.647572E-7
         1944.737     4.047763E-7
          1946.47     5.458215E-7
         1948.207     6.882445E-7
         1949.947     8.319619E-7
         1951.685     8.142489E-7
         1953.427     7.912119E-7
         1955.171     7.679538E-7
         1956.913     7.445021E-7
          1958.66     7.207986E-7
         1960.408     7.057254E-7
         1962.157     7.197184E-7
         1963.908     7.338214E-7
         1965.658     7.480083E-7
         1967.413     7.623139E-7
         1969.169     7.767229E-7
         1970.925     7.237069E-7
         1972.684     6.091755E-7
         1974.444     4.937091E-7
         1976.205     3.772336E-7
         1977.969     2.596068E-7
         1979.734     1.411021E-7
           1981.5     1.464984E-7
         1983.268     1.742376E-7
         1985.037     2.021947E-7
         1986.809     2.304014E-7
         1988.581     2.588251E-7
         1990.355     2.978077E-7
         1992.131     3.784083E-7
         1993.908     4.596865E-7
         1995.688     5.417459E-7
         1997.467     6.243351E-7
          1999.25     7.077105E-7
         2001.034     6.682182E-7
         2002.818     5.383478E-7
         2004.606     4.069319E-7
         2006.396     2.742754E-7
         2008.184     1.404750E-7
         2009.976     5.186321E-9
         2011.769     1.279683E-8
         2013.565     2.242720E-8
         2015.362     3.215226E-8
         2017.158     4.195982E-8
         2018.958     5.187431E-8
          2020.76     5.477419E-8
         2022.563     4.791443E-8
         2024.368     4.098169E-8
         2026.173     3.398503E-8
         2027.982     2.691465E-8
         2029.791     1.977927E-8
         2031.602     1.732166E-8
         2033.414     1.546498E-8
         2035.228     1.358996E-8
         2037.044     1.169538E-8
         2038.861     9.783425E-9
         2040.681     3.660130E-8
         2042.502     1.120051E-7
         2044.324     1.880814E-7
         2046.147     2.648686E-7
         2047.974     3.424271E-7
           2049.8     4.206621E-7
          2051.63     3.659573E-7
         2053.461     2.942556E-7
         2055.291     2.219579E-7
         2057.125     1.488969E-7
         2058.961     7.514609E-8
         2060.798     4.223421E-8
         2062.637     6.330089E-8
         2064.477     8.454619E-8
         2066.318     1.059821E-7
         2068.164     1.276381E-7
         2070.007     1.493599E-7
         2071.855     1.479705E-7
         2073.704     1.465649E-7
         2075.553     1.451436E-7
         2077.405     1.437060E-7
         2079.259     1.422505E-7
         2081.113     1.267564E-7
         2082.971     1.017239E-7
         2084.829     7.648463E-8
         2086.688     5.102441E-8
          2088.55     2.532206E-8
         2090.414     5.127242E-9
         2092.279     4.916458E-9
         2094.145     4.703804E-9
         2096.014     4.489049E-9
         2097.885     4.272380E-9
         2099.756     4.053899E-9
          2101.63     7.645152E-9
         2103.503     1.183489E-8
         2105.381     1.606367E-8
          2107.26     2.032786E-8
         2109.139     2.462427E-8
         2111.022     3.148844E-8
         2112.906     4.054846E-8
         2114.789     4.966883E-8
         2116.677     5.887351E-8
         2118.564     6.814498E-8
         2120.455     7.243032E-8
         2122.348     6.070965E-8
         2124.241     4.890628E-8
         2126.135     3.700928E-8
         2128.033     2.501355E-8
         2129.932     1.292327E-8
         2131.832     1.101751E-8
         2133.734     9.477801E-9
         2135.637     7.926735E-9
         2137.544     6.362054E-9
          2139.45     4.788795E-9
         2141.359     5.664728E-9
          2143.27     7.548218E-9
         2145.182     9.444970E-9
         2147.096     1.135699E-8
         2149.011     1.328215E-8
         2150.929     1.422484E-8
         2152.848     1.410797E-8
         2154.768     1.399004E-8
         2156.692     1.387091E-8
         2158.615     1.375094E-8
         2160.541     1.317787E-8
         2162.469     1.143982E-8
         2164.397     9.692004E-9
          2166.33     7.928815E-9
         2168.263     6.154417E-9
         2170.196     5.360928E-9
         2172.133     1.337932E-8
          2174.07     2.144231E-8
         2176.011     2.956229E-8
         2177.953     3.773343E-8
         2179.895     4.594968E-8
          2181.84     4.476957E-8
         2183.787     4.304138E-8
         2185.735     4.130353E-8
         2187.686     3.955427E-8
         2189.637     3.779549E-8
          2191.59     4.557954E-8
         2193.546     5.560084E-8
         2195.503     6.567402E-8
         2197.462     7.579547E-8
         2199.423     8.597801E-8
         2201.385     7.774020E-8
         2203.348     6.158236E-8
         2205.315     4.513970E-8
         2207.283     2.842278E-8
         2209.252     1.144077E-8
         2211.222     6.356844E-9
         2213.196     8.708767E-9
          2215.17     1.109526E-8
         2217.147     1.352006E-8
         2219.125     1.598158E-8
         2221.104     3.471667E-8
         2223.086     6.675061E-8
         2225.071     9.928525E-8
         2227.055     1.322421E-7
         2229.042     1.657245E-7
         2231.031     1.695214E-7
         2233.021     1.451187E-7
         2235.015     1.203179E-7
         2237.008     9.517798E-8
         2239.003     6.966395E-8
         2241.002     7.388343E-8
         2242.999     1.083030E-7
         2245.002     1.432602E-7
         2247.005     1.786557E-7
         2249.009     2.145339E-7
         2251.016     2.109556E-7
         2253.024     1.680932E-7
         2255.033     1.246431E-7
         2257.046     8.057049E-8
         2259.061     3.590427E-8
         2261.075     1.798299E-8
         2263.092     2.384934E-8
         2265.112     2.979438E-8
         2267.134     3.581489E-8
         2269.156     4.190679E-8
         2271.181     4.006371E-8
         2273.207     3.243272E-8
         2275.234     2.470384E-8
         2277.266     1.686717E-8
         2279.296     8.947795E-9
          2281.33     9.617152E-9
         2283.366     1.492669E-8
         2285.402     2.029364E-8
         2287.441     2.573112E-8
         2289.483     3.123236E-8
         2291.525     2.886878E-8
          2293.57     2.376808E-8
         2295.615     1.861268E-8
         2297.663     1.339305E-8
         2299.715     8.105880E-9
         2301.765     8.634977E-9
          2303.82     1.012508E-8
         2305.876     1.163263E-8
         2307.932     1.315679E-8
         2309.992     1.469963E-8
         2312.051     1.502375E-8
         2314.116     1.534679E-8
          2316.18     1.567250E-8
         2318.246     1.600119E-8
         2320.315     1.599930E-8
         2322.385     1.412668E-8
         2324.457     1.223054E-8
         2326.531     1.031326E-8
         2328.606     8.373389E-9
         2330.685     7.172244E-9
         2332.764     7.519917E-9
         2334.845     7.871204E-9
         2336.927     8.226040E-9
         2339.012     8.584482E-9
         2341.101     9.382647E-9
         2343.188     1.058107E-8
         2345.279     1.179234E-8
         2347.372     1.301709E-8
         2349.467     1.425453E-8
         2351.562     1.606475E-8
         2353.661     1.808765E-8
         2355.759     2.012856E-8
         2357.862     2.219303E-8
         2359.966     2.427831E-8
         2362.071     2.310608E-8
         2364.179     2.186563E-8
         2366.288     2.061232E-8
         2368.398     1.934524E-8
         2370.512     1.798581E-8
         2372.628     1.636713E-8
         2374.744     1.473262E-8
         2376.863     1.308014E-8
         2378.983     1.141153E-8
         2381.105     1.979212E-8
          2383.23     3.757540E-8
         2385.357     5.552997E-8
         2387.485     7.364813E-8
         2389.615     9.193873E-8
         2391.747     8.153298E-8
         2393.881     6.463149E-8
         2396.017     4.755727E-8
         2398.154     3.033115E-8
         2400.293     1.692369E-8
         2402.435     2.860932E-8
          2404.58     4.040346E-8
         2406.724     5.229705E-8
         2408.872     6.430537E-8
         2411.022     6.684218E-8
         2413.171     5.878999E-8
         2415.326     5.064901E-8
         2417.479     4.244942E-8
         2419.637     3.416406E-8
         2421.796     3.200565E-8
         2423.957     3.108709E-8
          2426.12     3.015916E-8
         2428.284     2.922297E-8
         2430.451     2.977723E-8
         2432.619     3.606809E-8
         2434.789     4.241092E-8
         2436.962     4.881097E-8
         2439.136     5.526343E-8
         2441.312     7.994336E-8
          2443.49     1.168400E-7
          2445.67     1.540624E-7
         2447.853     1.915952E-7
         2450.036     2.281647E-7
         2452.222     1.914682E-7
         2454.409     1.544671E-7
           2456.6     1.171355E-7
         2458.792     7.950091E-8
         2460.985     6.425537E-8
          2463.18     7.681568E-8
         2465.379     8.948358E-8
         2467.579     1.022496E-7
         2469.778     1.150998E-7
         2471.983     1.208048E-7
          2474.19     1.257396E-7
         2476.396     1.307019E-7
         2478.606     1.357066E-7
         2480.817     1.437145E-7
         2483.029     1.568737E-7
         2485.247     1.701501E-7
         2487.462     1.835015E-7
         2489.682     1.969694E-7
         2491.904     1.659100E-7
         2494.125     1.271752E-7
         2496.353     8.806436E-8
         2498.579     4.869616E-8
         2500.808     2.270549E-8
          2503.04     2.067814E-8
         2505.272     1.863610E-8
         2507.509     1.657637E-8
         2509.745     1.450208E-8
         2511.985     1.671246E-8
         2514.225     1.949310E-8
         2516.468     2.229502E-8
         2518.714     2.511953E-8
         2520.962     3.176023E-8
          2523.21     4.353890E-8
         2525.462     5.541462E-8
         2527.715     6.737226E-8
         2529.971     7.942766E-8
         2532.229     6.531884E-8
         2534.486     5.077121E-8
         2536.748     3.609377E-8
          2539.01     2.127836E-8
         2541.277     1.422890E-8
         2543.545     1.324544E-8
         2545.813     1.225846E-8
         2548.084     1.126744E-8
         2550.358     1.217634E-8
         2552.635     2.330270E-8
         2554.911     3.446430E-8
         2557.191     4.567774E-8
         2559.471     5.692122E-8
         2561.755     5.776804E-8
         2564.042     5.545875E-8
         2566.329     5.314097E-8
         2568.619     5.081225E-8
         2570.908     4.654498E-8
         2573.205     3.930201E-8
           2575.5     3.204010E-8
         2577.797     2.474782E-8
         2580.097     1.780866E-8
         2582.399     1.958623E-8
         2584.704     2.137191E-8
          2587.01     2.316418E-8
         2589.318     2.496242E-8
         2591.629     2.703326E-8
          2593.94     2.922228E-8
         2596.254     3.141938E-8
         2598.573     3.362776E-8
         2600.889     3.288208E-8
          2603.21     2.736371E-8
         2605.532     2.182641E-8
         2607.856     1.626623E-8
         2610.185     1.136141E-8
         2612.512     1.439359E-8
         2614.843     1.744134E-8
         2617.177     2.050143E-8
          2619.51     2.356995E-8
         2621.849     2.799397E-8
         2624.188     3.278598E-8
         2626.528     3.759692E-8
         2628.873     4.243024E-8
         2631.217     4.418726E-8
         2633.566     4.307907E-8
         2635.916     4.196577E-8
         2638.267     4.084796E-8
          2640.62     4.534336E-8
         2642.977     6.560198E-8
         2645.334     8.593157E-8
         2647.695     1.063549E-7
         2650.057     1.257683E-7
         2652.422     1.013688E-7
         2654.788     7.688342E-8
         2657.157     5.227968E-8
         2659.526     2.760373E-8
         2661.899     2.575406E-8
         2664.275     2.964139E-8
         2666.652     3.354207E-8
         2669.031     3.746046E-8
         2671.412     3.708736E-8
         2673.796     3.375019E-8
         2676.181     3.040115E-8
          2678.57     2.703583E-8
          2680.96     2.372176E-8
          2683.35     2.049535E-8
         2685.746     1.724968E-8
          2688.14     1.399639E-8
          2690.54     1.773261E-8
         2692.941     4.569228E-8
         2695.343     7.375160E-8
         2697.748     1.019385E-7
         2700.153     1.280158E-7
         2702.563     1.219139E-7
         2704.975     1.157664E-7
         2707.387     1.095765E-7
         2709.804     1.033359E-7
         2712.222     1.051488E-7
         2714.642     1.076886E-7
         2717.063     1.102441E-7
         2719.486     1.128160E-7
         2721.915     9.766465E-8
         2724.343     7.764869E-8
         2726.772     5.748869E-8
         2729.205     3.718431E-8
          2731.64     2.756520E-8
         2734.078     2.315568E-8
         2736.517     1.871716E-8
         2738.958     1.424735E-8
         2741.402     1.293347E-8
         2743.849     1.399105E-8
         2746.296     1.505508E-8
         2748.747     1.612699E-8
         2751.198     1.615816E-8
         2753.653     1.509283E-8
         2756.111     1.402497E-8
         2758.569     1.295523E-8
         2761.031     1.397926E-8
         2763.495     1.792094E-8
         2765.958     2.186710E-8
         2768.427     2.582715E-8
         2770.898     2.718333E-8
         2773.369     2.395931E-8
         2775.844     2.072587E-8
          2778.32     1.748684E-8
         2780.799     2.783054E-8
          2783.28     6.684778E-8
         2785.764     1.059578E-7
         2788.249     1.451300E-7
         2790.736     1.615236E-7
         2793.227     1.234409E-7
          2795.72     8.527306E-8
         2798.213     4.704226E-8
         2800.709     1.946941E-8
         2803.209     1.894053E-8
         2805.709     1.841077E-8
         2808.213     1.787948E-8
         2810.718     1.716838E-8
         2813.226     1.600869E-8
         2815.736     1.484718E-8
         2818.247     1.368315E-8
         2820.764     1.489885E-8
         2823.278     2.158270E-8
         2825.798     2.828903E-8
          2828.32     3.500943E-8
         2830.843     4.547339E-8
         2833.369     6.342228E-8
         2835.898     8.141010E-8
         2838.426     9.941252E-8
         2840.959     1.141484E-7
         2843.495     1.234433E-7
         2846.031     1.327515E-7
         2848.571     1.420856E-7
         2851.112     1.328718E-7
         2853.655     9.974033E-8
         2856.202     6.652373E-8
         2858.751     3.324092E-8
         2861.301     4.540387E-8
         2863.853     1.013514E-7
         2866.407     1.574136E-7
         2868.965     2.136229E-7
         2871.526     2.188664E-7
         2874.087     1.894586E-7
         2876.652     1.599722E-7
         2879.218     1.304492E-7
         2881.788     1.061798E-7
         2884.358     8.421558E-8
         2886.931     6.220770E-8
         2889.507     4.014562E-8
         2892.084     3.181447E-8
         2894.666     2.672371E-8
         2897.248     2.162596E-8
         2899.832     1.651927E-8
         2902.421     1.533700E-8
          2905.01     1.443141E-8
         2907.601     1.352726E-8
         2910.198     1.289649E-8
          2912.79     1.557050E-8
         2915.392     1.824625E-8
         2917.992     2.091366E-8
         2920.594     2.272942E-8
         2923.203     2.168231E-8
         2925.807     2.063952E-8
          2928.42     1.959610E-8
         2931.033     1.829417E-8
         2933.646     1.659765E-8
         2936.266     1.490126E-8
         2938.885     1.321022E-8
         2941.506     1.305024E-8
         2944.131     1.402182E-8
         2946.757     1.499080E-8
         2949.387     1.595835E-8
         2952.018     5.133050E-8
         2954.653     9.709418E-8
          2957.29     1.427643E-7
         2959.926     1.882855E-7
         2962.567     1.568686E-7
          2965.21     1.233123E-7
         2967.856     8.980938E-8
         2970.505     6.025400E-8
         2973.155     4.723350E-8
         2975.808     3.423203E-8
         2978.461     2.127485E-8
         2981.121     1.831278E-8
          2983.78     2.905869E-8
         2986.441     3.978082E-8
         2989.104     5.047804E-8
         2991.772     4.658713E-8
         2994.442     3.534935E-8
         2997.113     2.414273E-8
         2999.788     1.295410E-8
         3002.464     1.364431E-8
         3005.142     1.534977E-8
         3007.826     1.705333E-8
         3010.507     2.189641E-8
         3013.194     4.023983E-8
         3015.883     5.853987E-8
         3018.573     7.678470E-8
         3021.267     7.812243E-8
          3023.96     6.048171E-8
          3026.66     4.285127E-8
          3029.36     2.528399E-8
         3032.062     2.108767E-8
          3034.77     2.103380E-8
         3037.475     2.098000E-8
         3040.186     2.075713E-8
         3042.897     1.824474E-8
         3045.612     1.573833E-8
         3048.332     1.323501E-8
         3051.051     1.172768E-8
         3053.772     1.178967E-8
         3056.497     1.185145E-8
         3059.222     1.191290E-8
         3061.954     1.512474E-8
         3064.685     1.957596E-8
         3067.418     2.401566E-8
         3070.156     2.821011E-8
         3072.896     2.849752E-8
         3075.637     2.878378E-8
          3078.38     2.906901E-8
         3081.126     2.760626E-8
         3083.877     2.363177E-8
         3086.628     1.967261E-8
         3089.381     1.572461E-8
         3092.137     1.627744E-8
         3094.895     1.812795E-8
         3097.659     1.997539E-8
         3100.422     2.461800E-8
         3103.187     4.487396E-8
         3105.955     6.520736E-8
         3108.729     8.564363E-8
         3111.501     1.107054E-7
         3114.277     1.397475E-7
         3117.056     1.689183E-7
         3119.836     1.981796E-7
         3122.621     1.936382E-7
         3125.406     1.869560E-7
         3128.195     1.802441E-7
         3130.985     1.597757E-7
         3133.778     1.140112E-7
         3136.575     6.804382E-8
         3139.373     2.192921E-8
         3142.175     1.158141E-8
         3144.979     1.159851E-8
         3147.784     1.161564E-8
         3150.592     1.284212E-8
         3153.405     1.862177E-8
         3156.218     2.441584E-8
         3159.035     3.023595E-8
         3161.851     3.023360E-8
         3164.674     2.717318E-8
         3167.497     2.410472E-8
         3170.322     2.164471E-8
         3173.152     2.400498E-8
         3175.982     2.637290E-8
         3178.816     2.875113E-8
         3181.652     3.530969E-8
          3184.49     4.488906E-8
         3187.333     5.451803E-8
         3190.175     6.440865E-8
         3193.022     7.808047E-8
          3195.87     9.179688E-8
         3198.722     1.055733E-7
         3201.577     1.454736E-7
         3204.433     2.066699E-7
         3207.291     2.680976E-7
         3210.151     3.228977E-7
         3213.018     2.547471E-7
         3215.884     1.864230E-7
         3218.752     1.178318E-7
         3221.623     7.905680E-8
         3224.499     6.329321E-8
         3227.376     4.746817E-8
         3230.255     4.079146E-8
         3233.136     1.289056E-7
          3236.02     2.173615E-7
         3238.908     3.062128E-7
         3241.799     3.128391E-7
          3244.69     2.692878E-7
         3247.584     2.255618E-7
         3250.485     1.900291E-7
         3253.384     1.963825E-7
         3256.286     2.027599E-7
         3259.192     2.091651E-7
         3262.097     1.764843E-7
          3265.01     1.284783E-7
         3267.922     8.034971E-8
         3270.837     4.486546E-8
         3273.758     4.115996E-8
         3276.675     3.744947E-8
         3279.601     3.371503E-8
         3282.526     1.040548E-7
         3285.454     1.864106E-7
         3288.388     2.691828E-7
         3291.319     2.824415E-7
         3294.257     2.103046E-7
         3297.195     1.379329E-7
         3300.137     6.836627E-8
         3303.083     6.257503E-8
         3306.029     5.676426E-8
         3308.979     5.092766E-8
         3311.931     5.226302E-8
         3314.885     5.741343E-8
         3317.844     6.258679E-8
         3320.803     7.893630E-8
         3323.767     1.254140E-7
         3326.731     1.720465E-7
           3329.7     2.188920E-7
          3332.67     1.719779E-7
         3335.643     1.143128E-7
         3338.622     5.635346E-8
         3341.599     9.199895E-8
          3344.58     2.087992E-7
         3347.563     3.260497E-7
         3350.551     4.081960E-7
         3353.541     3.326351E-7
         3356.532     2.568180E-7
         3359.528     1.806572E-7
         3362.524     1.990826E-7
         3365.525     2.353834E-7
         3368.527     2.718062E-7
         3371.532     3.582147E-7
         3374.541     4.930922E-7
         3377.551     6.284273E-7
         3380.565     7.298993E-7
         3383.582     6.820085E-7
         3386.598     6.339831E-7
         3389.623     5.856743E-7
         3392.646     5.789951E-7
         3395.672     5.782549E-7
         3398.705     5.775084E-7
         3401.732     5.939356E-7
          3404.77     6.233727E-7
         3407.807     6.528900E-7
         3410.847     6.717060E-7
         3413.893     6.624995E-7
         3416.938     6.532651E-7
         3419.985     6.439903E-7
         3423.038     7.206235E-7
         3426.089     7.978862E-7
         3429.148     8.756008E-7
         3432.207     9.574803E-7
         3435.268     1.041216E-6
         3438.334     1.125341E-6
         3441.401     1.134442E-6
         3444.473     1.053764E-6
         3447.545     9.728104E-7
         3450.622     9.131218E-7
         3453.701     9.389425E-7
         3456.782     9.648469E-7
         3459.865     9.908557E-7
         3462.951     9.281571E-7
         3466.042     8.610875E-7
         3469.135     7.937392E-7
         3472.229     8.968719E-7
         3475.326     1.066850E-6
         3478.426     1.237525E-6
         3481.532     1.311761E-6
         3484.638     1.286114E-6
         3487.746     1.260357E-6
         3490.859     1.226984E-6
         3493.972     1.173797E-6
         3497.091     1.120355E-6
          3500.21     1.073127E-6
         3503.334     1.114870E-6
          3506.46     1.156786E-6
         3509.586     1.198823E-6
          3512.72     1.229066E-6
         3515.852     1.257545E-6
         3518.989     1.286173E-6
          3522.13     1.244420E-6
         3525.271     1.168986E-6
         3528.418     1.093180E-6
         3531.563     1.107013E-6
         3534.717     1.212315E-6
          3537.87     1.317939E-6
         3541.025     1.395355E-6
         3544.188     1.413418E-6
         3547.349     1.431529E-6
         3550.513     1.456581E-6
         3553.679     1.517346E-6
         3556.849     1.578370E-6
         3560.026     1.639116E-6
         3563.201     1.624745E-6
         3566.379     1.610303E-6
         3569.562     1.595781E-6
         3572.746     1.514946E-6
         3575.935     1.423095E-6
         3579.124     1.330897E-6
         3582.316     1.334790E-6
         3585.513     1.375307E-6
         3588.714     1.416001E-6
         3591.915     1.538874E-6
         3595.118     1.717535E-6
         3598.325     1.896994E-6
         3601.538     2.000896E-6
         3604.751     2.021647E-6
         3607.966     2.042481E-6
         3611.184     2.038869E-6
         3614.409     1.992914E-6
         3617.633     1.946804E-6
         3620.859     1.941784E-6
         3624.089     2.050808E-6
         3627.322     2.160303E-6
         3630.561     2.254508E-6
         3633.799     2.272930E-6
          3637.04     2.291425E-6
         3640.286     2.312368E-6
         3643.533     2.357908E-6
         3646.785     2.403667E-6
         3650.038     2.449654E-6
         3653.295     2.501289E-6
         3656.556     2.553148E-6
         3659.815     2.605158E-6
         3663.082     2.587184E-6
         3666.353     2.564879E-6
         3669.621     2.542500E-6
         3672.896     2.589895E-6
         3676.172     2.646633E-6
         3679.451     2.703610E-6
         3682.737     2.782868E-6
         3686.022     2.866789E-6
         3689.309     2.951068E-6
           3692.6     2.989065E-6
         3695.896     3.014805E-6
         3699.194     3.040649E-6
         3702.494     3.048315E-6
         3705.798     3.050084E-6
         3709.101     3.051844E-6
         3712.412     3.078043E-6
         3715.725     3.113480E-6
         3719.039     3.149039E-6
         3722.358     3.148665E-6
         3725.678     3.133539E-6
         3729.004     3.118321E-6
          3732.33     3.175672E-6
         3735.659     3.264425E-6
         3738.995     3.353674E-6
          3742.33     3.371328E-6
         3745.668     3.357956E-6
         3749.009     3.344506E-6
         3752.354     3.344771E-6
         3755.703     3.350848E-6
         3759.053     3.356931E-6
         3762.408     3.430896E-6
         3765.764     3.531871E-6
         3769.125     3.633341E-6
         3772.487     3.672735E-6
         3775.852     3.690257E-6
         3779.222     3.707851E-6
         3782.594     3.739999E-6
         3785.968     3.776611E-6
         3789.345     3.813373E-6
         3792.725     3.853345E-6
         3796.112     3.894266E-6
         3799.498     3.935306E-6
         3802.887     3.906715E-6
         3806.279     3.865809E-6
         3809.676     3.824671E-6
         3813.076     3.887319E-6
         3816.477     3.961172E-6
         3819.881     4.035337E-6
          3823.29     4.068038E-6
           3826.7     4.099332E-6
         3830.116     4.130870E-6
         3833.532     4.165472E-6
         3836.951     4.200208E-6
         3840.378     4.237382E-6
         3843.803     4.292920E-6
         3847.232     4.348686E-6
         3850.663     4.403114E-6
         3854.102     4.451285E-6
          3857.54     4.499594E-6
          3860.98     4.529407E-6
         3864.426     4.512289E-6
         3867.875     4.495075E-6
         3871.325     4.495090E-6
         3874.778     4.522935E-6
         3878.234     4.550881E-6
         3881.695     4.539865E-6
         3885.157     4.487997E-6
         3888.625     4.435845E-6
         3892.094     4.506953E-6
         3895.565     4.659660E-6
         3899.044     4.813216E-6
         3902.521     4.800033E-6
         3906.002     4.723203E-6
         3909.489     4.645971E-6
         3912.975     4.694893E-6
         3916.468     4.765853E-6
         3919.961     4.837055E-6
         3923.457     4.814744E-6
         3926.961     4.791225E-6
         3930.462     4.788013E-6
         3933.969     4.919460E-6
         3937.478     5.051373E-6
         3940.992     5.126234E-6
          3944.51     5.054444E-6
         3948.028     4.982370E-6
          3951.55     4.945348E-6
         3955.074     4.953289E-6
         3958.606     4.961253E-6
         3962.137     4.966380E-6
         3965.671     4.969652E-6
          3969.21     4.972920E-6
          3972.75     4.983940E-6
         3976.296     4.997230E-6
         3979.843     5.010550E-6
         3983.395     5.033095E-6
          3986.95     5.056143E-6
         3990.504     5.082612E-6
         3994.065     5.129682E-6
          3997.63     5.176932E-6
         4001.196     5.227781E-6
         4004.767     5.285588E-6
         4008.339     5.343391E-6
         4011.914     5.380918E-6
         4015.494     5.400836E-6
         4019.078     5.420761E-6
         4022.663     5.347415E-6
         4026.251     5.241714E-6
         4029.844     5.135898E-6
         4033.441     5.096820E-6
         4037.039     5.060765E-6
         4040.639     5.036585E-6
         4044.243     5.067520E-6
         4047.855     5.098505E-6
         4051.465     5.109518E-6
         4055.079     5.091320E-6
         4058.698     5.073101E-6
         4062.316     5.065154E-6
         4065.944     5.062966E-6
          4069.57     5.060775E-6
           4073.2     5.072558E-6
         4076.838     5.086234E-6
         4080.472     5.089769E-6
         4084.114     5.025391E-6
         4087.756     4.961027E-6
         4091.405     4.918901E-6
         4095.056     4.912396E-6
         4098.708     4.905893E-6
         4102.367     4.934148E-6
         4106.026     4.981365E-6
         4109.688     5.028581E-6
         4113.356     5.044753E-6
         4117.025     5.058024E-6
         4120.699     5.069888E-6
         4124.375     5.075727E-6
         4128.056     5.081570E-6
         4131.738     5.076459E-6
         4135.423     5.059092E-6
         4139.116     5.041695E-6
         4142.808     4.995367E-6
         4146.503     4.939901E-6
         4150.201     4.887748E-6
         4153.903     4.893284E-6
         4157.613     4.898822E-6
         4161.321     4.926528E-6
         4165.033     4.994313E-6
         4168.748     5.062100E-6
         4172.466     5.002051E-6
         4176.192     4.876887E-6
         4179.917     4.751859E-6
         4183.645     4.803148E-6
         4187.379     4.858487E-6
         4191.116     4.882619E-6
         4194.854     4.833468E-6
         4198.596     4.784313E-6
         4202.343     4.786226E-6
         4206.094     4.818833E-6
         4209.845     4.851500E-6
         4213.603     4.785627E-6
         4217.358     4.715417E-6
         4221.123     4.671055E-6
          4224.89     4.688176E-6
         4228.658     4.705329E-6
         4232.432     4.743486E-6
         4236.208     4.793296E-6
         4239.988     4.843259E-6
          4243.77     4.746866E-6
         4247.555     4.649756E-6
         4251.348     4.569851E-6
          4255.14     4.521720E-6
         4258.936     4.473457E-6
         4262.734     4.412057E-6
         4266.537     4.345421E-6
         4270.347     4.273414E-6
         4274.155     4.150172E-6
         4277.968     4.026590E-6
         4281.786     3.930235E-6
         4285.605     3.865149E-6
          4289.43     3.799857E-6
         4293.256     3.740221E-6
         4297.085     3.681452E-6
         4300.922     3.636834E-6
         4304.759     3.637627E-6
         4308.598     3.638418E-6
         4312.441     3.791262E-6
          4316.29     4.032073E-6
         4320.142     4.296207E-6
         4323.996     5.154688E-6
         4327.854     6.015778E-6
         4331.715     8.009327E-6
         4335.581     1.142718E-5
         4339.448     1.485109E-5
         4343.318     2.231171E-5
         4347.195     3.046758E-5
         4351.072     4.343622E-5
         4354.956     6.902512E-5
          4358.84     9.466128E-5
         4362.728     1.403028E-4
         4366.624     1.946297E-4
         4370.519     2.602552E-4
         4374.417     3.993476E-4
         4378.318     5.387659E-4
         4382.229     7.241193E-4
         4386.137     9.439698E-4
         4390.049      0.00116856
         4393.967     0.001723396
         4397.889     0.002279655
         4401.812     0.002963315
         4405.738     0.003796358
         4409.667     0.004631449
         4413.603     0.005715828
         4417.542     0.006825652
         4421.482     0.008102418
         4425.426     0.009655983
         4429.373      0.01121313
         4433.329      0.01285481
         4437.283      0.01451343
         4441.241      0.01625015
         4445.205      0.01815548
         4449.169      0.02006424
          4453.14      0.02184612
         4457.112      0.02359625
         4461.088      0.02535961
         4465.069      0.02715236
         4469.052      0.02894829
         4473.041      0.03052314
          4477.03      0.03203001
         4481.028      0.03351711
         4485.022      0.03493229
         4489.025      0.03635274
         4493.032      0.03753332
         4497.039      0.03863769
         4501.053      0.03976389
         4505.067      0.04094796
         4509.086      0.04214137
         4513.107      0.04312081
         4517.136       0.0440424
         4521.167      0.04495146
           4525.2      0.04581947
         4529.238      0.04669423
         4533.281      0.04744075
         4537.324      0.04816052
         4541.371      0.04886283
         4545.422      0.04952618
         4549.479      0.05019423
         4553.539      0.05077544
           4557.6      0.05134641
         4561.668      0.05189974
         4565.734      0.05242454
         4569.809      0.05295309
         4573.887      0.05343448
         4577.967      0.05391579
         4582.053      0.05437727
         4586.142      0.05481865
         4590.233      0.05525944
         4594.327      0.05565932
         4598.425      0.05606104
         4602.529      0.05644982
         4606.637      0.05683094
         4610.746      0.05721099
          4614.86      0.05758162
         4618.979      0.05795388
         4623.097      0.05831826
         4627.223      0.05868163
          4631.35      0.05903732
         4635.483      0.05937624
         4639.621      0.05971639
         4643.759       0.0600498
           4647.9      0.06038363
         4652.046      0.06070593
         4656.198      0.06101635
         4660.354      0.06132819
         4664.511      0.06164547
         4668.673      0.06196393
          4672.84      0.06227599
         4677.005      0.06258511
          4681.18      0.06289643
         4685.355      0.06321058
         4689.537      0.06352594
         4693.722      0.06383621
         4697.909      0.06414644
         4702.102       0.0644567
         4706.293      0.06476637
         4710.493      0.06507543
         4714.697      0.06537121
         4718.902      0.06566757
         4723.114       0.0659701
          4727.33      0.06627525
         4731.543       0.0665726
         4735.766       0.0668567
          4739.99      0.06714134
         4744.221      0.06744338
         4748.455      0.06774623
          4752.69      0.06804918
         4756.932      0.06835279
         4761.172       0.0686544
         4765.421      0.06895082
         4769.674      0.06924797
         4773.929      0.06954573
         4778.189      0.06984441
         4782.454      0.07014328
         4786.719      0.07044236
         4790.989      0.07073855
         4795.262      0.07102342
         4799.542      0.07130911
         4803.826      0.07161629
          4808.11      0.07192659
         4812.401      0.07222604
         4816.696      0.07251686
         4820.993      0.07281153
         4825.292      0.07311806
         4829.597      0.07342542
         4833.907      0.07372738
         4838.221      0.07402949
         4842.537      0.07433415
         4846.855      0.07464098
         4851.179      0.07494356
         4855.508      0.07523342
         4859.842      0.07552391
         4864.177       0.0758193
         4868.518       0.0761157
         4872.863      0.07641029
         4877.209      0.07670411
          4881.56      0.07699731
         4885.914      0.07728881
         4890.277      0.07758173
         4894.639      0.07788167
         4899.004      0.07818229
         4903.376      0.07847886
         4907.748      0.07877426
          4912.13      0.07906851
         4916.512      0.07936055
         4920.897      0.07965394
         4925.289      0.07995106
         4929.685      0.08024884
         4934.082      0.08054699
         4938.482      0.08084574
         4942.887      0.08113335
         4947.301      0.08141566
         4951.714      0.08170703
         4956.131      0.08201312
         4960.554      0.08231843
         4964.976      0.08261282
          4969.41      0.08290838
         4973.842      0.08319832
         4978.278      0.08348788
         4982.724      0.08377345
         4987.168      0.08405612
         4991.617      0.08434357
         4996.069      0.08463912
         5000.528      0.08493973
         5004.991      0.08527286
         5009.455      0.08560635
         5013.923      0.08594039
         5018.398      0.08627515
         5022.874       0.0866189
         5027.357       0.0869683
         5031.841      0.08730919
         5036.329      0.08763772
         5040.827      0.08796813
         5045.323      0.08830294
         5049.823      0.08863834
         5054.327      0.08898114
         5058.838      0.08932504
         5063.353      0.08967681
         5067.869      0.09003152
          5072.39      0.09037553
         5076.919      0.09071027
         5081.448      0.09103776
          5085.98      0.09134993
         5090.516      0.09166557
          5095.06      0.09200632
         5099.607      0.09234762
         5104.155      0.09267701
         5108.708      0.09300572
         5113.265      0.09332521
         5117.828      0.09364144
         5122.396      0.09396037
         5126.965      0.09428156
         5131.538      0.09460115
          5136.12      0.09491757
         5140.701      0.09523696
         5145.287      0.09557344
         5149.876      0.09591037
         5154.472      0.09622534
         5159.072      0.09653996
         5163.674      0.09685465
         5168.283      0.09716985
         5172.895       0.0974764
         5177.506      0.09777755
         5182.127      0.09807854
         5186.749      0.09837879
         5191.378      0.09867842
         5196.012       0.0989757
         5200.646      0.09927344
         5205.285      0.09957442
         5209.928      0.09987561
         5214.577       0.1001784
         5219.231       0.1004814
         5223.887       0.1007792
         5228.549       0.1010762
         5233.215         0.10137
          5237.88       0.1016618
         5242.555       0.1019514
         5247.231       0.1022386
         5251.914       0.1025183
         5256.601       0.1027867
          5261.29       0.1030514
         5265.985       0.1033064
          5270.68       0.1035657
         5275.383        0.103853
         5280.092       0.1041398
         5284.801       0.1043905
         5289.518       0.1046412
         5294.239       0.1048997
         5298.958       0.1051587
         5303.687       0.1054055
         5308.418       0.1056484
         5313.155       0.1058921
         5317.897       0.1061362
         5322.641       0.1063781
         5327.391       0.1066185
          5332.14       0.1068492
         5336.899       0.1070687
         5341.662       0.1072916
         5346.426       0.1075212
         5351.198       0.1077418
         5355.974       0.1079359
         5360.751       0.1081354
         5365.532       0.1083673
         5370.318       0.1085959
         5375.111       0.1087807
         5379.908       0.1089648
         5384.707       0.1091497
         5389.513       0.1093341
         5394.323       0.1095163
         5399.131       0.1096975
          5403.95       0.1098831
          5408.77       0.1100689
         5413.597       0.1102282
         5418.429       0.1103779
         5423.262       0.1105412
         5428.099       0.1107109
          5432.94        0.110862
         5437.792       0.1110008
         5442.643       0.1111352
         5447.497       0.1112659
         5452.359       0.1113979
         5457.225       0.1115311
         5462.092       0.1116608
         5466.964       0.1117861
          5471.84       0.1118983
         5476.724       0.1119893
         5481.612       0.1120851
         5486.501       0.1121923
         5491.398       0.1122896
         5496.293       0.1123634
         5501.198       0.1124321
         5506.108       0.1124871
         5511.019       0.1125343
         5515.938       0.1125552
          5520.86       0.1125779
         5525.785       0.1126148
         5530.713       0.1126437
         5535.646       0.1126314
         5540.587       0.1126226
         5545.532       0.1126503
         5550.478       0.1126718
         5555.432       0.1126466
         5560.387       0.1126196
         5565.347       0.1125892
         5570.313       0.1125546
         5575.282       0.1124815
         5580.258       0.1124091
         5585.238        0.112383
          5590.22       0.1123524
         5595.206       0.1122567
         5600.197       0.1121557
         5605.198       0.1119726
         5610.197       0.1117859
         5615.201       0.1115335
         5620.213        0.111282
         5625.226       0.1110858
         5630.246       0.1108848
         5635.268       0.1106182
         5640.294       0.1103517
         5645.328       0.1101092
         5650.367       0.1098623
         5655.406       0.1095761
         5660.451       0.1092914
         5665.502       0.1090361
         5670.559       0.1087717
         5675.617       0.1084431
         5680.679       0.1081267
         5685.752       0.1078984
         5690.823       0.1076634
         5695.899       0.1073978
         5700.979       0.1071227
         5706.064       0.1068123
          5711.16       0.1064904
         5716.254       0.1061347
         5721.353        0.105779
         5726.456       0.1054267
         5731.567       0.1050617
         5736.682       0.1046702
         5741.799       0.1042741
          5746.92       0.1038704
         5752.053        0.103485
         5757.183        0.103129
         5762.318       0.1027423
         5767.458       0.1023183
         5772.602       0.1018952
         5777.757       0.1014723
         5782.911       0.1010244
         5788.068       0.1005562
         5793.237       0.1001208
         5798.401      0.09970528
         5803.577      0.09922289
         5808.753      0.09870987
         5813.937       0.0982431
         5819.126      0.09778975
         5824.316      0.09728089
         5829.511      0.09675894
         5834.711       0.0962935
         5839.918      0.09583186
          5845.13      0.09527475
         5850.344      0.09471796
         5855.562      0.09421283
         5860.792      0.09369951
         5866.016      0.09315459
         5871.251      0.09261022
         5876.488      0.09207521
         5881.732      0.09152271
         5886.982      0.09093749
         5892.232      0.09036957
         5897.491        0.089825
         5902.749      0.08926293
         5908.017      0.08868328
          5913.29      0.08810207
         5918.563      0.08751937
         5923.846      0.08692721
         5929.133      0.08633017
         5934.421      0.08575781
         5939.714      0.08518845
         5945.012      0.08452896
         5950.318      0.08386743
         5955.629      0.08329808
         5960.941      0.08271046
         5966.258      0.08204453
         5971.579      0.08140339
         5976.909      0.08082436
         5982.243       0.0801973
         5987.579      0.07950513
         5992.923      0.07886139
         5998.271      0.07825799
         6003.622      0.07754234
         6008.976       0.0767729
         6014.336      0.07606088
         6019.704       0.0753614
         6025.076      0.07457835
          6030.45      0.07379725
         6035.832      0.07309477
         6041.219      0.07236782
         6046.604       0.0715606
         6052.001      0.07079617
         6057.399       0.0701073
         6062.805      0.06936242
         6068.216      0.06856591
         6073.628      0.06784473
         6079.046         0.06716
         6084.468      0.06637499
         6089.898      0.06556712
         6095.333      0.06487679
          6100.77      0.06417223
         6106.215      0.06336918
         6111.665      0.06259961
         6117.112       0.0619085
         6122.572      0.06117746
         6128.033      0.06040304
         6133.502      0.05968942
         6138.976      0.05900991
         6144.452      0.05823818
         6149.936      0.05744379
         6155.417      0.05676901
         6160.911      0.05607906
          6166.41       0.0553132
          6171.91      0.05458368
         6177.418      0.05392227
         6182.932       0.0532033
         6188.443      0.05243438
         6193.966      0.05174601
         6199.491      0.05108967
         6205.024      0.05034232
         6210.562      0.04959491
         6216.101      0.04893509
         6221.649      0.04825463
         6227.195       0.0475283
         6232.756      0.04684031
         6238.315      0.04619366
         6243.879      0.04550046
         6249.452       0.0447861
         6255.029      0.04415262
         6260.608      0.04351848
         6266.193      0.04280865
         6271.782      0.04213279
         6277.379      0.04153002
         6282.982      0.04088169
         6288.586      0.04019359
         6294.198      0.03957938
         6299.809      0.03899043
         6305.435      0.03832671
         6311.059      0.03767772
         6316.688      0.03710248
         6322.326      0.03649494
         6327.968      0.03584215
         6333.612      0.03525375
         6339.262      0.03470106
         6344.916      0.03407381
         6350.579      0.03344473
         6356.247      0.03290616
         6361.916      0.03234142
         6367.594       0.0317247
         6373.277      0.03115631
         6378.961      0.03062365
         6384.651      0.03004871
         6390.346       0.0294679
         6396.049      0.02894972
         6401.757       0.0284098
         6407.467      0.02782208
         6413.183      0.02729084
         6418.906      0.02680427
         6424.631      0.02626868
         6430.365      0.02572559
         6436.104      0.02525424
         6441.845       0.0247661
         6447.594      0.02424186
         6453.345      0.02376249
         6459.101      0.02331509
         6464.866      0.02282996
         6470.632       0.0223445
         6476.407      0.02191206
         6482.184      0.02146325
         6487.969      0.02098687
         6493.756      0.02055482
         6499.548      0.02014651
         6505.349      0.01968763
         6511.154      0.01923049
         6516.962      0.01879501
         6522.778      0.01835998
         6528.596      0.01792592
         6534.419       0.0175187
         6540.251      0.01711883
         6546.088      0.01668684
         6551.927      0.01627579
         6557.771      0.01590577
         6563.624      0.01551504
         6569.478      0.01511227
         6575.341      0.01475504
         6581.206      0.01439654
          6587.08      0.01401295
         6592.955      0.01365787
         6598.839       0.0133305
         6604.729      0.01297896
         6610.616      0.01262789
         6616.516      0.01232288
         6622.421      0.01200606
         6628.328      0.01167222
         6634.244      0.01137409
         6640.165      0.01108972
         6646.087      0.01077832
         6652.015      0.01048367
         6657.948      0.01022087
         6663.891     0.009942002
         6669.838     0.009655111
         6675.787     0.009408438
         6681.745     0.009153419
         6687.701     0.008875464
          6693.67     0.008629967
         6699.644     0.008405188
          6705.62     0.008154155
         6711.604      0.00791186
         6717.594      0.00769727
         6723.586     0.007470298
         6729.583     0.007235146
         6735.585     0.007037938
         6741.597     0.006839907
         6747.613      0.00663133
         6753.632     0.006432503
          6759.66     0.006240038
         6765.692     0.006044845
         6771.723     0.005856911
         6777.767     0.005685988
         6783.813     0.005513468
         6789.867     0.005340044
         6795.927     0.005173594
         6801.988      0.00501111
         6808.055     0.004855756
         6814.127     0.004704206
         6820.209     0.004554732
         6826.296      0.00441047
         6832.385     0.004266684
         6838.482     0.004123216
         6844.586     0.003990049
         6850.687     0.003867221
         6856.801     0.003796048
         6862.917     0.003725077
         6869.042     0.003654219
         6875.173      0.00358361
         6881.305     0.003513252
         6887.446     0.003443035
         6893.586     0.003373094
         6899.738     0.003303259
         6905.896     0.003233562
         6912.056     0.003154194
         6918.225     0.003055242
         6924.399     0.002950195
         6930.572     0.002844523
         6936.757     0.002753809
         6942.944     0.002660671
         6949.141     0.002564753
         6955.343     0.002480259
         6961.546     0.002396656
          6967.76     0.002309637
         6973.971     0.002231734
         6980.195     0.002158644
         6986.424     0.002077976
         6992.656     0.002003406
         6998.897     0.001936833
         7005.143     0.001864981
         7011.392     0.001794627
         7017.645     0.001732648
         7023.904     0.001667508
         7030.173     0.001600884
         7036.448     0.001546179
         7042.724     0.001489696
         7049.009     0.001430747
         7055.292     0.001379474
         7061.589     0.001328953
         7067.892     0.001276329
         7074.196     0.001229666
          7080.51     0.001185723
         7086.829     0.001138338
          7093.15     0.001094906
         7099.477     0.001055389
         7105.809     0.001013433
         7112.151     9.736205E-4
         7118.498     9.382855E-4
         7124.848     9.010838E-4
         7131.207     8.645163E-4
         7137.571     8.328622E-4
         7143.933     8.001136E-4
         7150.309     7.669466E-4
         7156.687     7.389766E-4
         7163.074     7.100610E-4
         7169.467     6.801489E-4
         7175.862     6.547791E-4
         7182.262     6.291260E-4
         7188.668     6.021287E-4
         7195.084     5.790732E-4
         7201.506     5.567045E-4
         7207.929     5.330868E-4
         7214.362     5.122543E-4
         7220.801     4.926118E-4
         7227.237     4.717978E-4
         7233.688     4.529227E-4
         7240.144     4.355041E-4
         7246.601     4.169644E-4
         7253.069     3.998681E-4
         7259.538     3.843748E-4
         7266.017     3.684033E-4
         7272.498     3.534128E-4
         7278.989     3.399748E-4
         7285.481     3.254368E-4
         7291.979     3.115766E-4
         7298.487     2.996495E-4
         7305.001     2.871147E-4
         7311.517     2.749040E-4
         7318.038     2.642524E-4
         7324.569     2.531397E-4
         7331.103     2.421755E-4
         7337.646     2.327539E-4
          7344.19     2.229278E-4
         7350.745     2.130902E-4
         7357.301     2.048851E-4
         7363.867     1.963845E-4
         7370.436     1.877979E-4
         7377.014     1.806330E-4
         7383.593     1.730488E-4
         7390.183     1.651588E-4
         7396.775     1.588157E-4
         7403.372     1.521842E-4
         7409.979     1.452753E-4
         7416.589     1.395851E-4
         7423.208     1.337566E-4
         7429.829     1.277834E-4
          7436.46     1.226499E-4
         7443.097     1.174983E-4
         7449.736     1.123011E-4
         7456.381     1.079254E-4
         7463.036     1.034047E-4
         7469.692     9.867514E-5
         7476.359     9.480822E-5
         7483.027     9.084622E-5
         7489.702     8.671499E-5
         7496.386     8.322723E-5
         7503.077     7.974630E-5
         7509.769     7.623844E-5
         7516.471     7.327378E-5
         7523.175     7.023010E-5
          7529.89     6.707263E-5
         7536.606     6.446697E-5
         7543.328     6.173785E-5
         7550.061     5.887715E-5
         7556.794     5.652109E-5
         7563.539     5.430782E-5
          7570.29     5.222163E-5
         7577.042     5.005912E-5
           7583.8     4.797443E-5
         7590.568     4.594395E-5
         7597.339     4.384715E-5
         7604.119     4.200289E-5
         7610.906     4.031590E-5
         7617.694     3.858233E-5
         7624.489     3.705116E-5
          7631.29     3.559011E-5
           7638.1     3.397866E-5
         7644.917     3.260392E-5
         7651.736     3.129407E-5
         7658.565     2.989940E-5
         7665.396     2.869525E-5
         7672.233     2.753962E-5
         7679.081     2.637651E-5
          7685.93     2.531957E-5
          7692.79     2.424165E-5
         7699.655     2.310951E-5
         7706.523     2.229003E-5
         7713.401     2.141894E-5
         7720.276     2.048647E-5
         7727.167     1.969639E-5
         7734.063     1.889584E-5
         7740.961     1.811077E-5
          7747.87     1.745813E-5
         7754.785     1.670164E-5
         7761.697     1.596194E-5
         7768.625     1.540714E-5
         7775.554     1.477183E-5
         7782.494     1.414983E-5
         7789.439     1.358632E-5
         7796.387     1.303753E-5
         7803.345     1.250715E-5
         7810.301     1.199723E-5
         7817.271     1.151275E-5
         7824.249     1.106416E-5
         7831.227     1.063647E-5
         7838.216     1.019603E-5
         7845.212     9.820738E-6
         7852.209     9.471040E-6
         7859.213     9.127422E-6
         7866.223     8.806881E-6
         7873.244     8.434105E-6
         7880.271     8.002084E-6
         7887.299     7.679057E-6
         7894.338     7.407839E-6
         7901.375     7.147883E-6
         7908.427     6.799993E-6
         7915.485     6.515494E-6
         7922.545     6.282292E-6
         7929.616     6.106814E-6
         7936.693     5.925215E-6
         7943.772     5.687688E-6
         7950.858     5.407534E-6
          7957.95     5.168979E-6
         7965.052     5.025964E-6
         7972.161     4.888870E-6
         7979.271     4.677247E-6
         7986.393     4.521431E-6
         7993.521     4.518717E-6
         8000.646     4.697066E-6
         8007.786     5.195291E-6
         8014.929     5.215312E-6
         8022.082     4.920407E-6
         8029.242     4.378649E-6
         8036.403     4.065791E-6
         8043.576     3.723999E-6
         8050.746     3.362956E-6
         8057.931     3.306769E-6
         8065.123     3.553056E-6
         8072.316     3.680803E-6
         8079.521     3.309603E-6
         8086.731     2.934927E-6
          8093.94     2.878303E-6
         8101.164     2.991748E-6
         8108.389     2.635912E-6
         8115.626     2.575201E-6
         8122.869     2.530899E-6
         8130.114     2.389404E-6
          8137.37     2.526659E-6
         8144.628     2.035527E-6
         8151.893     1.505401E-6
         8159.168     1.857823E-6
         8166.446     1.955509E-6
         8173.734     1.932900E-6
         8181.029     1.891721E-6
         8188.326     2.236657E-6
          8195.63     1.751372E-6
         8202.939     1.461114E-6
         8210.261     1.802156E-6
         8217.588     1.744871E-6
         8224.918     2.011713E-6
         8232.259     2.158925E-6
         8239.602     1.689580E-6
          8246.95     1.922644E-6
         8254.311     1.962725E-6
         8261.673     1.806177E-6
         8269.047     1.535832E-6
         8276.427     1.471813E-6
         8283.809     1.305321E-6
         8291.197     1.105763E-6
         8298.597     1.368461E-6
         8305.999     1.242097E-6
         8313.412     8.549414E-7
         8320.827     3.527750E-7
         8328.253     4.992870E-7
         8335.687     1.001486E-6
         8343.121     1.135830E-6
         8350.563     6.989605E-7
         8358.011     1.211236E-6
         8365.471     1.094628E-6
         8372.937     9.260483E-7
         8380.409     1.004405E-6
         8387.879     6.793886E-7
         8395.365     7.917326E-7
         8402.854     1.052787E-6
         8410.353     1.253013E-6
         8417.859     9.909088E-7
         8425.367     1.174190E-6
         8432.887     1.212216E-6
         8440.408     7.731788E-7
         8447.937     9.888702E-7
         8455.477     9.411174E-7
         8463.019     6.557997E-7
         8470.571     2.202340E-7
         8478.127     4.782851E-7
         8485.693     9.071483E-7
         8493.262     9.769923E-7
         8500.842     5.446662E-7
         8508.425     4.544677E-7
         8516.019     3.585299E-7
         8523.614     2.573650E-7
         8531.221     2.169903E-7
          8538.83     5.152914E-7
         8546.446     8.659457E-7
         8554.074     9.004857E-7
         8561.704     7.833111E-7
         8569.345     1.118579E-6
         8576.993     8.197234E-7
         8584.644     6.467733E-7
         8592.301     7.271967E-7
         8599.969     1.118823E-6
          8607.64     8.886358E-7
         8615.321     5.208785E-7
         8623.006     4.197533E-7
         8630.702     7.419475E-7
         8638.405     2.590202E-7
         8646.105     2.950430E-7
         8653.821     5.494455E-7
          8661.54     7.363923E-7
         8669.271     3.175644E-7
         8677.008     1.184829E-7
         8684.747     1.129266E-7
         8692.493     2.755352E-7
         8700.251     5.696949E-7
         8708.012     9.537939E-7
         8715.783     6.092678E-7
         8723.563     3.555943E-7
         8731.343     4.332726E-7
         8739.136     1.868856E-7
         8746.926     4.614055E-7
         8754.732     6.723675E-7
         8762.546     7.447707E-7
         8770.361     6.847902E-7
         8778.188     2.525391E-7
         8786.019     3.208474E-7
         8793.859     6.208796E-7
         8801.703     8.964172E-7
         8809.554     7.843828E-7
         8817.416     3.948938E-7
         8825.286     4.322601E-7
         8833.157     4.779876E-7
         8841.041     3.023856E-7
         8848.922     6.793559E-7
         8856.819     5.753353E-7
         8864.724     5.289214E-7
         8872.631     5.270085E-7
          8880.55     4.241628E-7
         8888.476     1.542155E-7
         8896.403     2.410857E-7
         8904.338     2.097796E-7
          8912.28     1.308227E-7
         8920.234     3.332730E-7
         8928.195     1.792283E-7
         8936.159     1.218600E-7
         8944.135     3.070778E-7
         8952.117     5.516774E-7
         8960.097     4.155708E-7
         8968.094     1.127444E-7
         8976.093     2.487630E-7
         8984.104     4.209687E-7
         8992.122     4.300547E-7
         9000.143     2.520036E-7
         9008.175     2.049582E-7
         9016.205     1.748276E-7
         9024.252     1.460244E-7
         9032.306     1.468786E-7
         9040.362     2.265172E-7
         9048.431     2.610322E-7
         9056.506     3.508430E-7
         9064.579     5.329724E-7
         9072.669     5.760514E-7
         9080.761     2.824838E-7
         9088.865     5.957029E-7
         9096.978     3.586864E-7
         9105.092     3.783283E-7
         9113.218     4.186452E-7
         9121.341     2.090317E-7
         9129.481     1.221294E-7
          9137.63     5.197715E-7
          9145.78     4.551334E-7
         9153.942     2.280101E-7
         9162.112     1.880937E-7
         9170.284     5.482738E-7
         9178.464     4.768197E-7
         9186.655     4.509741E-7
         9194.849     3.985467E-7
         9203.056     2.668286E-7
         9211.264     1.409703E-7
         9219.485     5.347332E-7
         9227.708     3.609125E-7
         9235.938     2.161607E-7
         9244.182     1.998930E-7
         9252.427     2.407057E-7
         9260.685     1.999361E-7
         9268.949     3.483975E-7
         9277.217     2.045301E-7
         9285.492     1.041823E-7
         9293.779     8.531968E-8
         9302.068     1.346361E-7
          9310.37     2.525992E-7
         9318.675     4.041765E-7
         9326.991     4.296131E-7
         9335.315     2.171926E-7
         9343.637     5.241137E-8
         9351.977     1.183322E-7
         9360.317     2.350592E-7
         9368.672     9.579615E-8
         9377.033     2.978755E-7
         9385.396     2.949529E-7
         9393.768     2.449362E-7
         9402.152     2.640171E-7
         9410.538     1.546402E-7
         9418.937     1.843061E-7
         9427.338     3.991117E-7
         9435.752     3.538982E-7
         9444.173     2.523649E-7
         9452.592     2.126607E-7
         9461.028     1.666596E-7
         9469.472     2.636368E-7
         9477.918     1.891460E-7
         9486.377     1.958713E-7
         9494.838     1.797174E-7
         9503.313     1.382089E-7
         9511.788     1.334564E-7
         9520.272     1.895254E-7
          9528.77     2.257432E-7
         9537.269     3.424196E-7
          9545.78     3.459365E-7
           9554.3     2.795371E-7
         9562.821     2.289891E-7
         9571.351     2.439563E-7
         9579.894     3.264094E-7
         9588.438     2.102814E-7
         9596.995     2.581170E-7
         9605.561     2.706482E-7
         9614.128     3.070273E-7
         9622.704     3.745179E-7
         9631.286     3.573818E-7
         9639.882     2.751526E-7
         9648.485     7.191748E-8
         9657.092     1.553753E-7
         9665.711     2.424226E-7
         9674.332     1.963791E-7
         9682.961     1.386276E-7
         9691.603     2.226960E-7
         9700.252     1.932563E-7
         9708.904     1.944064E-7
         9717.569     8.385481E-8
         9726.237     2.432352E-7
         9734.912     3.145021E-7
         9743.601     2.920763E-7
         9752.291     2.835821E-7
         9760.995     1.227090E-7
         9769.701     5.697611E-8
         9778.421     9.954061E-8
         9787.147     1.733249E-7
         9795.872     2.804873E-7
         9804.614     2.445206E-7
         9813.359     1.380630E-7
         9822.118     1.542800E-7
         9830.884     2.168782E-7
         9839.652     1.467107E-7
         9848.435     2.168790E-7
         9857.219     1.327007E-7
         9866.011     1.671374E-7
         9874.816     1.245711E-7
         9883.624     1.152459E-7
         9892.444     2.268483E-7
         9901.273     1.321600E-7
         9910.104     1.196270E-7
         9918.944     8.722898E-8
         9927.791     1.377723E-7
         9936.651     2.470558E-7
         9945.521     2.347166E-7
         9954.391     1.789617E-7
         9963.275     1.722724E-7
         9972.162     1.762673E-7
         9981.057     1.531154E-7
         9989.964     1.646991E-7
          9998.88     1.579238E-7
          10007.8     1.565964E-7
         10016.72     1.934552E-7
         10025.67     1.809654E-7
          10034.6     1.681926E-7
         10043.56     1.714395E-7
         10052.52     1.531076E-7
         10061.49     1.417643E-7
         10070.47     1.519289E-7
         10079.46     1.730575E-7
         10088.45     1.890909E-7
         10097.44     1.820848E-7
         10106.46     1.691987E-7
         10115.48     1.529082E-7
          10124.5     1.352974E-7
         10133.53     1.446400E-7
         10142.58     1.673198E-7
         10151.62     1.343455E-7
         10160.68     1.426578E-7
         10169.74     1.449094E-7
         10178.81     1.360351E-7
          10187.9     1.287459E-7
         10196.99     1.278149E-7
         10206.08     1.353051E-7
         10215.19     1.608899E-7
         10224.31     1.607215E-7
         10233.43     1.378585E-7
         10242.56     1.351049E-7
         10251.69     1.184249E-7
         10260.85     1.138890E-7
           10270.     1.188345E-7
         10279.16     1.127612E-7
         10288.33     1.146951E-7
         10297.51     1.087316E-7
          10306.7     1.244182E-7
         10315.89     1.273762E-7
          10325.1     1.208954E-7
          10334.3     1.101022E-7
         10343.53     9.408119E-8
         10352.76     9.293428E-8
         10361.99     1.123584E-7
         10371.25     1.042038E-7
          10380.5     1.152536E-7
         10389.76     1.043471E-7
         10399.02     1.059860E-7
          10408.3     9.264634E-8
         10417.59     8.046305E-8
         10426.89     7.788754E-8
         10436.19     7.542157E-8
         10445.49     7.218485E-8
         10454.82     6.945168E-8
         10464.15     6.889992E-8
         10473.48     6.888803E-8
         10482.82     6.503574E-8
         10492.17     5.669592E-8
         10501.54     4.566440E-8
         10510.91     5.252583E-8
         10520.29     5.216254E-8
         10529.67     5.222820E-8
         10539.07     4.341197E-8
         10548.47     4.666042E-8
         10557.88     4.409367E-8
         10567.31     4.798432E-8
         10576.73     4.450484E-8
         10586.17     4.667582E-8
         10595.61     5.010125E-8
         10605.06     4.885347E-8
         10614.53     4.491246E-8
           10624.     4.491256E-8
         10633.48     4.737955E-8
         10642.96     4.630903E-8
         10652.45     4.823712E-8
         10661.97     4.316115E-8
         10671.48     4.403899E-8
         10680.99     4.270278E-8
         10690.53     4.732281E-8
         10700.07     4.119231E-8
         10709.61     4.128308E-8
         10719.16     4.519812E-8
         10728.72     4.683418E-8
         10738.31     4.630337E-8
         10747.88     4.002168E-8
         10757.47     3.963874E-8
         10767.08     4.074912E-8
         10776.67     4.109878E-8
         10786.29     4.057869E-8
         10795.91     3.935639E-8
         10805.54     3.781549E-8
         10815.18     3.717471E-8
         10824.83     3.681788E-8
         10834.49     3.646977E-8
         10844.17     3.663644E-8
         10853.84     3.510096E-8
         10863.52     3.216918E-8
         10873.21     3.153138E-8
         10882.91     3.090988E-8
         10892.63     2.886802E-8
         10902.35     2.936990E-8
         10912.07     2.856322E-8
         10921.81     2.664633E-8
         10931.54     2.583342E-8
         10941.31     2.554289E-8
         10951.07     2.440030E-8
         10960.83     2.193176E-8
         10970.62     2.105302E-8
         10980.39     2.130476E-8
          10990.2     1.808538E-8
           11000.     1.734525E-8
