#  Table wf4f255wsys.tab  Mon 12:22:43 02-Jun-97

#      WAVELENGTH      THROUGHPUT
#       angstroms                

            1216.    2.332977E-22
          1217.34    2.365610E-22
         1218.682    2.398515E-22
         1220.026    2.431592E-22
         1221.371    2.457585E-22
         1222.717    2.483762E-22
         1224.065    2.510152E-22
         1225.414    2.536738E-22
         1226.765    2.563525E-22
         1228.117    2.590514E-22
         1229.471    2.617705E-22
         1230.826    2.641006E-22
         1232.183    2.661852E-22
         1233.542    2.682835E-22
         1234.901    2.703927E-22
         1236.262    2.725158E-22
         1237.625    2.746510E-22
         1238.989    2.768004E-22
         1240.355    2.788243E-22
         1241.722    2.804589E-22
         1243.091    2.821025E-22
         1244.461    2.837540E-22
         1245.833    2.854129E-22
         1247.207    2.870815E-22
         1248.582    2.887576E-22
         1249.957    2.904410E-22
         1251.335    2.917472E-22
         1252.715    2.930462E-22
         1254.095    2.943496E-22
         1255.478    2.956593E-22
         1256.862    2.969734E-22
         1258.247    2.982920E-22
         1259.634    2.996163E-22
         1261.023    3.007033E-22
         1262.413    3.017067E-22
         1263.805    3.027129E-22
         1265.198    3.037220E-22
         1266.592    3.047335E-22
         1267.989    3.057485E-22
         1269.387    3.067668E-22
         1270.786    3.076311E-22
         1272.187    3.083759E-22
         1273.588    3.091215E-22
         1274.992    3.098689E-22
         1276.399    3.106178E-22
         1277.805    3.113675E-22
         1279.214    3.121186E-22
         1280.624    3.127751E-22
         1282.035    3.133109E-22
         1283.449    3.138473E-22
         1284.864    3.143838E-22
          1286.28    3.149200E-22
         1287.698    3.154570E-22
         1289.117    3.159940E-22
         1290.538    3.164720E-22
         1291.961    3.168525E-22
         1293.385    3.172324E-22
         1294.811    3.176118E-22
         1296.238    3.179909E-22
         1297.668    3.183697E-22
         1299.098    3.187476E-22
          1300.53    3.190888E-22
         1301.963    3.193670E-22
         1303.398    3.196442E-22
         1304.835    3.199207E-22
         1306.274    3.201964E-22
         1307.713    3.204710E-22
         1309.155    3.207449E-22
         1310.597    3.209856E-22
         1312.042    3.211802E-22
         1313.489    3.213735E-22
         1314.937    3.215657E-22
         1316.386    3.217565E-22
         1317.837    3.219462E-22
          1319.29    3.221346E-22
         1320.744    3.222904E-22
           1322.2    3.224147E-22
         1323.657    3.225375E-22
         1325.117    3.226589E-22
         1326.578    3.227788E-22
         1328.039    3.228972E-22
         1329.503    3.230141E-22
         1330.969    3.230929E-22
         1332.436    3.231511E-22
         1333.905    3.232076E-22
         1335.376    3.232625E-22
         1336.847    3.233155E-22
         1338.321    3.233668E-22
         1339.796    3.234164E-22
         1341.273    3.234320E-22
         1342.752    3.234405E-22
         1344.232    3.234471E-22
         1345.713    3.234519E-22
         1347.197    3.234547E-22
         1348.682    3.234556E-22
         1350.169    3.234515E-22
         1351.657    3.234212E-22
         1353.146    3.233888E-22
         1354.638    3.233205E-22
         1356.131    3.232050E-22
         1357.627    3.230876E-22
         1359.123    3.229686E-22
         1360.621    3.228413E-22
         1362.121    3.227031E-22
         1363.622    3.225631E-22
         1365.126    3.224211E-22
          1366.63    3.222774E-22
         1368.137    3.221317E-22
         1369.645    3.219842E-22
         1371.155    3.218343E-22
         1372.667    3.216823E-22
          1374.18    3.215284E-22
         1375.694    3.213728E-22
         1377.211    3.212150E-22
         1378.729    3.210555E-22
         1380.249    3.208956E-22
         1381.771    3.207418E-22
         1383.294    3.205860E-22
         1384.818    3.204285E-22
         1386.345    3.202690E-22
         1387.874    3.201076E-22
         1389.403    3.199444E-22
         1390.935    3.197940E-22
         1392.468    3.196513E-22
         1394.002    3.195068E-22
          1395.54    3.193603E-22
         1397.078    3.192121E-22
         1398.618    3.190622E-22
          1400.16    3.189137E-22
         1401.703    3.187920E-22
         1403.248    3.186687E-22
         1404.795    3.185435E-22
         1406.343    3.184167E-22
         1407.894    3.182882E-22
         1409.446    3.181580E-22
         1410.999    3.180365E-22
         1412.555    3.179190E-22
         1414.112    3.177998E-22
          1415.67    3.176791E-22
         1417.231    3.175567E-22
         1418.793    3.174326E-22
         1420.357    3.173052E-22
         1421.923    3.171707E-22
         1423.491    3.170345E-22
         1425.059    3.168968E-22
          1426.63    3.167573E-22
         1428.203    3.166161E-22
         1429.777    3.164733E-22
         1431.354    3.163084E-22
         1432.932    3.161385E-22
          1434.51    3.159669E-22
         1436.092    3.157934E-22
         1437.676    3.156182E-22
          1439.26    3.154414E-22
         1440.847    3.152377E-22
         1442.435    3.150104E-22
         1444.024    3.147814E-22
         1445.617    3.145503E-22
          1447.21    3.143176E-22
         1448.805    3.140829E-22
         1450.402    3.138287E-22
         1452.001    3.135200E-22
         1453.602    3.132088E-22
         1455.205    3.128959E-22
         1456.808    3.125811E-22
         1458.414    3.122641E-22
         1460.022    3.119440E-22
         1461.631    3.115362E-22
         1463.243    3.111264E-22
         1464.856    3.107143E-22
          1466.47    3.103003E-22
         1468.086    3.098838E-22
         1469.706    3.094650E-22
         1471.325    3.089531E-22
         1472.947    3.084183E-22
         1474.571    3.078811E-22
         1476.196    3.073416E-22
         1477.824    3.067994E-22
         1479.453    3.062551E-22
         1481.083    3.056228E-22
         1482.716    3.049444E-22
          1484.35    3.042634E-22
         1485.987    3.035798E-22
         1487.625    3.031237E-22
         1489.264    3.030356E-22
         1490.906    3.028586E-22
         1492.549    3.026077E-22
         1494.195    3.023495E-22
         1495.842    3.020840E-22
         1497.491    3.018113E-22
         1499.142    3.015313E-22
         1500.794    3.010540E-22
         1502.449    3.003618E-22
         1504.105    2.996610E-22
         1505.763    2.989508E-22
         1507.423    2.982313E-22
         1509.084    2.975029E-22
         1510.748    2.967123E-22
         1512.414    2.958486E-22
          1514.08    2.949756E-22
         1515.749    2.940928E-22
         1517.419    2.932008E-22
         1519.093    2.922984E-22
         1520.768    2.913550E-22
         1522.444    2.903643E-22
         1524.122    2.893644E-22
         1525.802    2.883544E-22
         1527.484    2.873348E-22
         1529.168    2.863056E-22
         1530.854    2.852511E-22
          1532.54    3.391958E-12
          1534.23    7.084885E-12
         1535.921    1.075314E-11
         1537.615    1.439772E-11
          1539.31    1.801344E-11
         1541.006    2.160515E-11
         1542.705    2.517129E-11
         1544.405    2.870905E-11
         1546.109    3.217120E-11
         1547.812    3.556099E-11
         1549.518    3.890806E-11
         1551.227    4.221663E-11
         1552.936    4.548237E-11
         1554.648    4.870651E-11
         1556.363    5.188917E-11
         1558.078    5.502549E-11
         1559.795    5.811970E-11
         1561.515    6.118942E-11
         1563.235    6.421877E-11
         1564.958    6.720835E-11
         1566.685    7.015821E-11
         1568.411    7.306394E-11
          1570.14    7.593252E-11
         1571.871    7.879442E-11
         1573.603    8.161645E-11
         1575.338    8.440149E-11
         1577.075    8.714939E-11
         1578.813    8.985613E-11
         1580.553    9.254420E-11
         1582.295    9.523524E-11
         1584.039    9.789312E-11
         1585.785    1.005161E-10
         1587.534    1.031043E-10
         1589.284    1.056576E-10
         1591.036    1.082253E-10
          1592.79    1.107960E-10
         1594.545    1.133350E-10
         1596.303    1.158449E-10
         1598.062    1.183242E-10
         1599.824    1.207730E-10
         1601.588    1.232917E-10
         1603.353    1.257947E-10
          1605.12    1.282735E-10
          1606.89    1.307272E-10
         1608.661    1.331553E-10
         1610.434    1.355899E-10
          1612.21    1.381020E-10
         1613.986    1.405931E-10
         1615.765    1.430653E-10
         1617.548    1.455189E-10
          1619.33    1.479497E-10
         1621.115    1.504570E-10
         1622.902    1.530064E-10
          1624.69    1.555402E-10
         1626.482    1.580620E-10
         1628.275    1.605671E-10
         1630.069    1.630654E-10
         1631.867    1.657170E-10
         1633.665    1.683587E-10
         1635.466    1.709948E-10
         1637.269    1.736212E-10
         1639.074    1.762391E-10
          1640.88    1.789428E-10
         1642.689    1.817452E-10
           1644.5    1.845455E-10
         1646.313    1.873439E-10
         1648.128    1.901517E-10
         1649.944    1.931078E-10
         1651.763    1.962826E-10
         1653.585    1.994760E-10
         1655.407    2.026759E-10
         1657.232    2.058878E-10
         1659.058    2.091081E-10
         1660.888    2.124488E-10
         1662.719    2.159167E-10
         1664.552    2.194021E-10
         1666.386    2.229032E-10
         1668.223    2.264235E-10
         1670.062    2.299684E-10
         1671.903    2.337387E-10
         1673.746    2.375330E-10
          1675.59    2.413502E-10
         1677.437    2.451941E-10
         1679.287    2.490630E-10
         1681.139    2.530830E-10
         1682.991    2.572071E-10
         1684.847    2.613647E-10
         1686.704    2.655542E-10
         1688.563    2.697736E-10
         1690.425    2.740718E-10
         1692.287    2.785447E-10
         1694.153    2.830583E-10
         1696.021    2.876104E-10
          1697.89    2.921989E-10
         1699.762    2.968310E-10
         1701.636    3.016509E-10
         1703.512    3.065376E-10
         1705.389    3.114662E-10
         1707.269    3.164430E-10
         1709.151    3.214652E-10
         1711.035    3.266208E-10
         1712.922    3.318981E-10
         1714.809    3.372242E-10
         1716.699    3.426043E-10
         1718.592    3.480364E-10
         1720.485    3.535527E-10
         1722.383    3.592301E-10
         1724.281    3.649580E-10
         1726.182    3.707467E-10
         1728.086    3.765962E-10
          1729.99    3.824984E-10
         1731.897    3.885812E-10
         1733.806    3.947274E-10
         1735.718    4.009366E-10
          1737.63    4.072060E-10
         1739.546    4.135424E-10
         1741.463    4.200173E-10
         1743.383    4.265821E-10
         1745.305    4.332150E-10
         1747.228    4.399133E-10
         1749.154    4.466843E-10
         1751.084    4.531316E-10
         1753.013    4.593168E-10
         1754.946    4.655553E-10
          1756.88    4.718446E-10
         1758.817    4.781844E-10
         1760.756    4.846000E-10
         1762.697    4.911057E-10
         1764.639    4.976612E-10
         1766.585    5.042732E-10
         1768.532    5.109390E-10
         1770.482    5.176750E-10
         1772.434    5.245144E-10
         1774.387    5.314096E-10
         1776.343    5.383582E-10
         1778.301    5.453665E-10
         1780.262    5.524438E-10
         1782.224    5.596261E-10
         1784.189    5.668708E-10
         1786.156    5.741747E-10
         1788.124    5.815348E-10
         1790.096    5.889650E-10
         1792.068    5.965163E-10
         1794.044    6.041334E-10
         1796.022    6.118129E-10
         1798.001    6.195514E-10
         1799.984    6.273606E-10
         1801.968    6.352909E-10
         1803.954    6.432869E-10
         1805.942    6.513446E-10
         1807.933    6.594715E-10
         1809.926    6.676648E-10
         1811.922    6.759959E-10
         1813.919    6.843975E-10
         1815.918    6.928635E-10
          1817.92    7.014032E-10
         1819.925    7.100158E-10
          1821.93    7.187604E-10
         1823.938    7.275829E-10
         1825.948    7.364736E-10
         1827.962    7.454452E-10
         1829.976    7.544808E-10
         1831.995    7.636755E-10
         1834.013    7.729365E-10
         1836.035    7.822780E-10
         1838.059    7.916953E-10
         1840.084    8.011872E-10
         1842.113    8.108342E-10
         1844.144    8.205596E-10
         1846.177    8.303637E-10
         1848.212    8.402479E-10
         1850.248    8.502170E-10
         1852.288    8.603427E-10
          1854.33    8.705512E-10
         1856.375    8.808479E-10
         1858.421    8.912168E-10
         1860.469    9.016947E-10
          1862.52    9.123204E-10
         1864.573    9.230369E-10
         1866.628    9.338403E-10
         1868.686    9.447307E-10
         1870.746    9.557398E-10
         1872.808    9.668927E-10
         1874.872    9.781302E-10
         1876.939    9.894637E-10
         1879.008     1.000885E-9
         1881.079     1.011585E-9
         1883.153     1.022401E-9
         1885.229     1.033290E-9
         1887.307     1.044247E-9
         1889.387     1.055283E-9
         1891.471     3.468074E-8
         1893.555     8.270459E-8
         1895.643     1.312618E-7
         1897.732     1.803264E-7
         1899.823     2.298801E-7
         1901.919     2.800210E-7
         1904.014     3.306363E-7
         1906.113     3.818057E-7
         1908.215     4.335049E-7
         1910.317     5.347109E-7
         1912.424     9.145859E-7
         1914.532     1.298147E-6
         1916.643     1.686122E-6
         1918.755     2.077808E-6
          1920.87     2.473833E-6
         1922.988     2.874101E-6
         1925.107     3.278358E-6
          1927.23     3.687204E-6
         1929.354     4.099856E-6
         1931.481     4.330970E-6
          1933.61     4.482710E-6
          1935.74     4.635810E-6
         1937.875     4.790522E-6
         1940.011     4.946523E-6
         1942.149     5.104340E-6
          1944.29     5.263632E-6
         1946.434     5.424416E-6
          1948.58     5.586686E-6
         1950.728     5.741354E-6
         1952.878     5.879555E-6
          1955.03     6.018930E-6
         1957.185     6.159613E-6
         1959.343     6.301534E-6
         1961.503     6.444885E-6
         1963.665     6.589573E-6
         1965.829     6.735456E-6
         1967.996     6.882682E-6
         1970.167     7.030531E-6
         1972.339     7.170763E-6
         1974.512     7.312119E-6
         1976.689     7.454747E-6
         1978.868     7.598572E-6
         1981.049     7.743733E-6
         1983.233     7.890254E-6
         1985.418     8.037919E-6
         1987.607     8.186890E-6
         1989.798     8.337090E-6
         1991.992     8.583008E-6
         1994.188     8.840800E-6
         1996.386     9.100930E-6
         1998.586     9.363288E-6
         2000.789     9.631259E-6
         2002.996     9.907682E-6
         2005.203     1.018673E-5
         2007.414     1.046883E-5
         2009.627     1.075387E-5
         2011.841     1.100004E-5
          2014.06     1.124042E-5
         2016.279     1.148292E-5
         2018.502     1.172795E-5
         2020.727     1.197534E-5
         2022.955     1.222504E-5
         2025.185     1.247718E-5
         2027.417     1.273177E-5
         2029.652     1.298880E-5
         2031.889     1.345469E-5
         2034.129     1.396398E-5
         2036.371     1.447874E-5
         2038.616     1.499892E-5
         2040.864     1.552442E-5
         2043.112     1.605492E-5
         2045.365     1.659120E-5
         2047.621     1.713330E-5
         2049.877     1.768044E-5
         2052.137     1.826813E-5
         2054.399     1.886378E-5
         2056.664     1.946548E-5
         2058.931     2.007336E-5
         2061.201     2.068663E-5
         2063.472     2.130508E-5
         2065.747     2.192993E-5
         2068.024     2.256100E-5
         2070.304     2.321059E-5
         2072.586     2.394721E-5
         2074.871     2.469098E-5
         2077.157     2.544178E-5
         2079.447     2.620022E-5
          2081.74     2.696454E-5
         2084.034     2.773489E-5
         2086.332     2.851287E-5
         2088.632     2.929828E-5
         2090.933     3.019218E-5
          2093.24     3.124545E-5
         2095.546     3.230761E-5
         2097.856     3.338035E-5
         2100.169     3.446300E-5
         2102.483     3.555139E-5
         2104.802     3.665100E-5
         2107.121     3.775947E-5
         2109.444     3.887871E-5
         2111.769     4.014177E-5
         2114.097     4.145852E-5
         2116.428     4.278701E-5
          2118.76     4.412673E-5
         2121.097     4.547613E-5
         2123.434     4.683181E-5
         2125.775     4.819973E-5
         2128.118     4.957942E-5
         2130.463     5.102746E-5
         2132.813     5.272385E-5
         2135.163     5.443272E-5
         2137.518     5.615747E-5
         2139.875     5.791264E-5
         2142.231     5.967394E-5
         2144.594     6.145231E-5
         2146.958     6.324498E-5
         2149.325     6.505279E-5
         2151.693     6.727807E-5
         2154.065     6.968425E-5
          2156.44     7.211018E-5
         2158.817     7.455623E-5
         2161.197     7.701345E-5
         2163.578     7.947918E-5
         2165.964     8.196571E-5
         2168.353     8.447268E-5
         2170.743     8.718432E-5
         2173.135     9.033002E-5
         2175.529     9.349892E-5
         2177.929     9.669451E-5
         2180.329     9.990612E-5
         2182.733     1.031191E-4
         2185.138     1.063507E-4
         2187.547     1.096061E-4
         2189.959     1.128836E-4
         2192.372     1.171255E-4
         2194.789     1.214124E-4
         2197.208     1.257269E-4
         2199.632     1.300704E-4
         2202.056     1.352209E-4
         2204.482     1.405932E-4
         2206.912     1.460551E-4
         2209.345     1.516044E-4
         2211.782     1.584074E-4
         2214.219     1.657442E-4
          2216.66     1.732038E-4
         2219.104     1.807833E-4
         2221.549     1.884595E-4
         2223.998     1.962459E-4
         2226.449     2.041520E-4
         2228.904     2.121793E-4
         2231.361     2.215297E-4
          2233.82     2.319958E-4
         2236.284     2.426322E-4
         2238.748     2.534189E-4
         2241.217     2.643557E-4
         2243.687     2.754187E-4
         2246.159     2.866417E-4
         2248.636     2.980369E-4
         2251.114     3.111100E-4
         2253.597     3.262696E-4
          2256.08     3.416317E-4
         2258.567     3.572202E-4
         2261.057     3.730052E-4
         2263.548     3.889647E-4
         2266.045     4.051591E-4
         2268.542     4.215566E-4
         2271.042     4.401863E-4
         2273.546     4.618903E-4
         2276.051     4.838766E-4
         2278.562     5.061788E-4
         2281.072     5.287320E-4
         2283.588     5.515671E-4
         2286.104     5.746739E-4
         2288.623     5.980785E-4
         2291.147     6.252554E-4
         2293.672     6.569249E-4
         2296.202     6.890544E-4
         2298.732     7.218400E-4
         2301.266     7.550545E-4
         2303.803     7.886783E-4
         2306.342     8.227267E-4
         2308.885     8.572489E-4
         2311.431     8.968756E-4
         2313.979     9.406831E-4
          2316.53     9.850593E-4
         2319.082     0.001029981
         2321.639      0.00107544
         2324.198     0.001121434
          2326.76     0.001168002
         2329.325     0.001215142
         2331.892     0.001269927
         2334.463     0.001327957
         2337.038     0.001386733
         2339.613      0.00144616
         2342.193      0.00150626
         2344.774     0.001566994
         2347.357     0.001628442
         2349.947     0.001690675
         2352.536      0.00175983
         2355.131     0.001829988
         2357.726     0.001900881
         2360.326     0.001972635
         2362.927      0.00204494
         2365.531     0.002118059
          2368.14     0.002192056
         2370.749     0.002266655
         2373.364     0.002341785
         2375.979     0.002417644
         2378.598     0.002494355
          2381.22     0.002571754
         2383.844     0.002649767
         2386.473     0.002728673
         2389.103     0.002808309
         2391.737     0.002881847
         2394.373     0.002952493
         2397.012     0.003023797
         2399.656     0.003095854
           2402.3     0.003168205
         2404.949      0.00324126
           2407.6     0.003314957
         2410.252     0.003387685
          2412.91     0.003445987
          2415.57     0.003504754
         2418.233     0.003564019
         2420.898     0.003623636
         2423.567     0.003683547
         2426.238     0.003743947
         2428.913      0.00380485
         2431.591     0.003855171
         2434.271     0.003898259
         2436.954     0.003941625
         2439.641     0.003985337
         2442.331     0.004029105
         2445.022      0.00407312
         2447.718      0.00411746
         2450.416     0.004159706
         2453.117     0.004189017
         2455.822     0.004218474
         2458.528     0.004248066
         2461.239     0.004277741
         2463.951     0.004307421
         2466.669     0.004337279
         2469.387     0.004367257
         2472.108     0.004389681
         2474.834     0.004409946
         2477.561     0.004430243
         2480.294     0.004450605
         2483.027     0.004470915
         2485.764     0.004491287
         2488.504     0.004511715
         2491.246     0.004529104
         2493.994     0.004542815
         2496.742       0.0045565
         2499.494      0.00457018
          2502.25     0.004583848
         2505.007     0.004597497
          2507.77     0.004611148
         2510.533     0.004624239
         2513.302     0.004635076
         2516.072     0.004645862
         2518.844     0.004656609
         2521.622     0.004667359
         2524.401     0.004678079
         2527.185     0.004688768
         2529.969     0.004699406
         2532.759     0.004707211
         2535.551     0.004714915
         2538.344     0.004717415
         2541.144      0.00471433
         2543.946     0.004711207
          2546.75     0.004707982
         2549.558     0.004704653
         2552.367     0.004699745
          2555.18     0.004694445
         2557.997     0.004689031
         2560.817     0.004683555
         2563.639     0.004678093
         2566.465     0.004672512
         2569.294     0.004666817
         2572.128     0.004659377
         2574.962     0.004651277
           2577.8      0.00464305
         2580.643     0.004634752
         2583.486     0.004626554
         2586.336     0.004618218
         2589.186     0.004609761
         2592.039     0.004598774
         2594.897      0.00458667
         2597.757     0.004574428
         2600.622     0.004562089
         2603.487     0.004549848
         2606.357     0.004537447
         2609.231     0.004524896
         2612.106     0.004510546
         2614.985     0.004495417
          2617.87     0.004480114
         2620.754     0.004464731
         2623.643     0.004449376
         2626.536     0.004433854
         2629.431     0.004418161
         2632.328     0.004399417
         2635.232     0.004379755
         2638.135     0.004359923
         2641.045     0.004339951
         2643.955     0.004319935
          2646.87     0.004299714
         2649.788     0.004279302
         2652.708     0.004257105
         2655.633     0.004234554
          2658.56      0.00421182
          2661.49     0.004188977
         2664.424     0.004166027
          2667.36     0.004142881
         2670.302     0.004119037
         2673.244     0.004090929
         2676.193     0.004062559
         2679.142     0.004033987
         2682.094     0.004005327
         2685.052     0.003976467
         2688.012     0.003947388
         2690.975     0.003917682
          2693.94     0.003886947
          2696.91      0.00385596
         2699.883     0.003824734
         2702.858     0.003800359
         2705.839     0.003775927
         2708.822     0.003751182
         2711.807     0.003724997
         2714.796     0.003697721
         2717.789     0.003670098
         2720.785     0.003642153
         2723.785     0.003613927
         2726.788      0.00358535
         2729.792     0.003556435
         2732.802     0.003525494
         2735.814      0.00349406
          2738.83     0.003462254
         2741.849     0.003430108
         2744.872     0.003397606
         2747.898     0.003364728
         2750.926     0.003328031
         2753.958     0.003283246
         2756.994     0.003238328
         2760.034     0.003193274
         2763.076     0.003148037
         2766.121     0.003102688
         2769.172     0.003057156
         2772.223     0.003010442
         2775.281     0.002963135
         2778.339     0.002915737
           2781.4     0.002868164
         2784.468     0.002820373
         2787.536     0.002772489
          2790.61     0.002724451
         2793.685     0.002676452
         2796.765     0.002628293
         2799.848     0.002580001
         2802.933     0.002531538
         2806.025     0.002482892
         2809.117     0.002434159
         2812.213     0.002385278
         2815.314     0.002336263
         2818.417     0.002287118
         2821.524     0.002237803
         2824.633     0.002188351
         2827.749     0.002138717
         2830.865     0.002089682
         2833.985     0.002042271
         2837.109      0.00199474
         2840.236     0.001947097
         2843.368     0.001899224
         2846.501     0.001851273
         2849.641     0.001803151
         2852.781     0.001757893
         2855.924     0.001712902
         2859.074     0.001667752
         2862.226     0.001622485
         2865.381     0.001577095
          2868.54      0.00153159
         2871.701     0.001488124
         2874.866     0.001446359
         2878.036     0.001404491
         2881.208     0.001362521
         2884.385     0.001320441
         2887.563     0.001278279
         2890.748     0.001237346
         2893.935     0.001200806
         2897.123     0.001164198
         2900.317     0.001127236
         2903.515      0.00108801
         2906.715     0.001048863
          2909.92     0.001009791
         2913.126     9.762183E-4
         2916.338     9.428322E-4
         2919.552     9.095171E-4
         2922.773     8.762414E-4
         2925.993     8.430669E-4
         2929.217     8.099612E-4
         2932.448     7.812664E-4
         2935.679     7.540556E-4
         2938.916     7.268908E-4
         2942.155     6.997870E-4
         2945.399     6.727428E-4
         2948.646     6.457581E-4
         2951.895     6.215841E-4
         2955.151     5.993978E-4
         2958.407     5.772851E-4
         2961.668     5.552131E-4
         2964.933     5.331950E-4
           2968.2     5.112383E-4
         2971.474     4.912568E-4
         2974.748     4.737107E-4
         2978.027     4.561988E-4
          2981.31     4.387268E-4
         2984.595     4.213021E-4
         2987.887     4.039053E-4
         2991.179     3.801801E-4
         2994.477     3.450632E-4
         2997.778     3.100435E-4
         3001.083     2.832694E-4
         3004.391     2.732808E-4
         3007.702     2.633233E-4
         3011.019     2.533038E-4
         3014.337     2.431458E-4
         3017.658     2.330156E-4
         3020.987     2.235998E-4
         3024.317     2.158675E-4
         3027.651     2.081562E-4
         3030.987     2.004298E-4
         3034.328     1.926278E-4
         3037.673     1.848477E-4
         3041.022     1.775842E-4
         3044.375     1.714670E-4
         3047.731     1.653675E-4
         3051.089     1.592524E-4
         3054.454     1.530744E-4
          3057.82     1.469204E-4
         3061.191     1.412327E-4
         3064.565     1.363862E-4
         3067.944     1.315539E-4
         3071.326     1.267191E-4
          3074.71     1.218749E-4
           3078.1     1.170432E-4
         3081.495     1.126963E-4
          3084.89     1.089668E-4
         3088.292     1.052452E-4
         3091.696     1.014529E-4
         3095.102     9.758698E-5
         3098.516     9.372913E-5
          3101.93     9.061668E-5
         3105.351     8.805551E-5
         3108.773     8.548438E-5
           3112.2     8.278168E-5
         3115.631     7.999976E-5
         3119.064     7.720552E-5
         3122.504     7.494984E-5
         3125.945     7.289320E-5
         3129.391     7.082518E-5
         3132.841     6.861105E-5
         3136.294     6.635673E-5
         3139.752     6.409133E-5
         3143.211     6.233049E-5
         3146.678     6.059923E-5
         3150.145     5.885931E-5
         3153.618     5.706641E-5
         3157.095     5.526479E-5
         3160.573     5.352756E-5
         3164.059     5.214739E-5
         3167.546     5.076184E-5
         3171.039     4.936116E-5
         3174.533     4.793863E-5
         3178.031     4.650920E-5
         3181.536     4.519701E-5
         3185.044     4.404033E-5
         3188.555     4.287799E-5
         3192.068     4.169674E-5
         3195.587     4.049934E-5
          3199.11     3.929613E-5
         3202.637     3.828712E-5
         3206.167     3.734096E-5
           3209.7     3.639058E-5
         3213.239     3.542469E-5
         3216.781     3.445310E-5
         3220.327     3.349521E-5
         3223.877     3.271509E-5
         3227.431     3.193103E-5
         3230.989     3.112993E-5
         3234.549     3.029079E-5
         3238.115     2.944706E-5
         3241.685     2.868452E-5
         3245.259     2.801382E-5
         3248.836     2.733978E-5
         3252.418     2.666221E-5
         3256.003     2.598119E-5
         3259.591     2.529713E-5
         3263.186     2.473920E-5
         3266.781     2.419582E-5
         3270.383     2.364681E-5
         3273.988     2.307334E-5
         3277.596     2.249729E-5
         3281.209     2.195953E-5
         3284.826     2.150180E-5
         3288.449     2.104154E-5
         3292.073     2.054380E-5
           3295.7     2.001681E-5
         3299.335     1.948664E-5
          3302.97     1.905757E-5
         3306.614     1.864911E-5
         3310.257     1.823992E-5
         3313.906     1.784033E-5
         3317.559     1.743875E-5
         3321.215     1.705238E-5
         3324.878     1.669804E-5
         3328.542     1.634230E-5
         3332.211     1.597690E-5
         3335.885     1.560457E-5
          3339.56     1.523056E-5
         3343.244     1.495779E-5
         3346.927     1.469799E-5
         3350.619     1.442556E-5
         3354.311     1.409725E-5
         3358.007     1.376726E-5
          3361.71     1.347203E-5
         3365.415     1.321849E-5
         3369.126     1.296339E-5
         3372.839     1.268692E-5
         3376.557     1.240263E-5
         3380.279     1.212396E-5
         3384.004     1.193133E-5
         3387.736     1.173749E-5
         3391.469     1.152153E-5
         3395.208     1.127143E-5
         3398.953     1.101989E-5
         3402.698     1.080678E-5
         3406.449     1.060783E-5
         3410.204     1.041007E-5
         3413.964     1.025051E-5
         3417.727     1.009012E-5
         3421.493     9.917985E-6
         3425.265     9.728113E-6
         3429.043     9.537148E-6
         3432.821     9.355941E-6
         3436.606     9.177278E-6
         3440.394     8.999135E-6
         3444.185     8.832861E-6
         3447.984     8.665522E-6
         3451.783     8.517572E-6
         3455.588     8.391584E-6
         3459.398     8.264900E-6
         3463.211     8.113341E-6
         3467.029     7.956405E-6
          3470.85     7.805160E-6
         3474.678     7.675646E-6
         3478.506     7.545549E-6
         3482.339     7.423729E-6
          3486.18     7.306867E-6
         3490.023     7.189428E-6
         3493.871     7.071374E-6
          3497.72     6.952722E-6
         3501.576     6.833403E-6
         3505.437     6.713497E-6
         3509.301     6.592916E-6
          3513.17     6.496310E-6
         3517.041     6.404655E-6
         3520.918     6.308860E-6
         3524.799     6.201013E-6
         3528.685     6.092555E-6
         3532.575     6.003752E-6
         3536.468     5.924864E-6
         3540.368     5.842537E-6
         3544.269     5.731963E-6
         3548.176     5.620706E-6
         3552.088     5.533634E-6
         3556.004     5.467809E-6
         3559.924     5.401594E-6
         3563.846     5.304500E-6
         3567.777     5.206147E-6
         3571.708     5.120982E-6
         3575.644     5.053162E-6
         3579.588     4.984877E-6
         3583.534     4.916295E-6
         3587.484     4.847320E-6
         3591.439     4.777943E-6
         3595.396     4.708201E-6
          3599.36     4.638011E-6
         3603.328     4.580999E-6
         3607.301     4.526266E-6
         3611.277     4.465977E-6
         3615.256     4.394273E-6
         3619.242     4.322116E-6
         3623.234     4.262884E-6
         3627.226     4.206504E-6
         3631.223     4.149768E-6
         3635.228     4.092609E-6
         3639.237     4.035110E-6
         3643.247     3.977328E-6
         3647.261     3.919201E-6
         3651.284     3.866050E-6
         3655.307     3.824130E-6
         3659.335     3.781952E-6
         3663.371     3.725308E-6
         3667.408     3.665580E-6
         3671.453     3.611573E-6
         3675.498     3.568268E-6
         3679.552     3.524653E-6
         3683.606     3.480818E-6
         3687.665     3.436717E-6
         3691.732     3.392304E-6
           3695.8     3.347669E-6
         3699.876     3.302717E-6
         3703.953     3.257540E-6
         3708.039     3.212044E-6
         3712.124     3.175488E-6
         3716.215     3.147201E-6
         3720.313     3.117346E-6
         3724.413     3.070889E-6
         3728.521     3.024102E-6
         3732.629     2.988553E-6
         3736.746     2.959236E-6
         3740.863     2.925980E-6
         3744.985     2.878203E-6
         3749.116     2.830091E-6
         3753.247     2.796071E-6
         3757.386     2.765725E-6
         3761.526     2.728441E-6
         3765.675     2.679232E-6
         3769.824     2.629781E-6
         3773.978     2.615578E-6
         3778.141     2.602837E-6
         3782.304     2.579673E-6
         3786.473     2.547966E-6
         3790.648     2.516059E-6
         3794.824     2.483947E-6
          3799.01     2.451605E-6
         3803.196     2.419125E-6
         3807.389     2.386433E-6
         3811.586     2.360755E-6
          3815.79     2.346821E-6
         3819.994     2.332805E-6
         3824.203     2.299395E-6
         3828.419     2.265741E-6
          3832.64     2.231884E-6
         3836.865     2.197823E-6
         3841.095     2.168621E-6
         3845.331     2.153779E-6
         3849.568     2.138855E-6
          3853.81     2.123806E-6
         3858.058     2.108650E-6
         3862.312     2.082570E-6
         3866.572     2.047191E-6
         3870.832     2.015547E-6
         3875.099     1.999860E-6
         3879.369     1.984080E-6
         3883.646     1.950935E-6
         3887.927     1.914600E-6
         3892.213     1.888557E-6
         3896.504     1.872231E-6
           3900.8     1.855798E-6
           3905.1     1.839241E-6
         3909.403     1.822589E-6
         3913.712     1.805802E-6
         3918.027     1.788909E-6
         3922.346     1.771897E-6
          3926.67     1.754769E-6
         3930.999     1.737536E-6
         3935.333     1.720195E-6
         3939.669     1.702759E-6
         3944.012     1.665625E-6
          3948.36     1.626659E-6
         3952.712     1.600739E-6
          3957.07     1.582719E-6
         3961.432     1.564576E-6
         3965.799     1.546296E-6
         3970.169     1.528755E-6
         3974.546     1.531888E-6
         3978.927     1.535028E-6
         3983.314     1.521712E-6
         3987.705     1.502970E-6
         3992.101     1.484101E-6
           3996.5     1.465111E-6
         4000.906     1.445353E-6
         4005.316     1.423013E-6
         4009.732     1.400656E-6
         4014.152     1.378258E-6
         4018.577     1.355842E-6
         4023.008     1.333393E-6
          4027.44     1.310932E-6
          4031.88     1.297819E-6
         4036.325     1.297472E-6
         4040.775     1.293254E-6
         4045.229     1.270663E-6
         4049.689     1.248059E-6
         4054.153     1.225421E-6
          4058.62     1.202781E-6
         4063.094     1.180101E-6
         4067.574     1.157404E-6
         4072.058     1.144930E-6
         4076.547     1.144525E-6
         4081.041     1.138937E-6
         4085.538     1.116151E-6
         4090.042     1.093550E-6
         4094.548     1.093135E-6
         4099.064     1.092717E-6
         4103.583     1.074480E-6
         4108.107     1.051581E-6
         4112.636     1.028673E-6
         4117.165     1.005778E-6
         4121.706     9.912877E-7
          4126.25     9.908341E-7
         4130.799     9.864225E-7
         4135.353     9.634248E-7
         4139.911     9.404230E-7
         4144.473     9.395406E-7
          4149.04     9.390968E-7
         4153.616     9.207653E-7
         4158.195     8.976878E-7
         4162.779     8.883206E-7
         4167.366     8.878648E-7
         4171.962     8.777283E-7
         4176.559     8.546073E-7
         4181.163     8.372028E-7
         4185.772     8.367505E-7
         4190.385     8.344033E-7
         4195.006     8.112128E-7
         4199.629     7.880424E-7
         4204.261     7.869836E-7
         4208.894     7.878540E-7
         4213.531     7.887240E-7
         4218.178     7.895960E-7
         4222.826     7.764977E-7
         4227.484     7.543073E-7
         4232.142     7.426700E-7
          4236.81     7.434779E-7
         4241.478     7.369486E-7
         4246.151     7.145244E-7
         4250.835     6.961531E-7
         4255.519     6.968978E-7
         4260.212     6.976440E-7
         4264.907     6.983789E-7
         4269.606     6.991148E-7
         4274.315     6.782815E-7
         4279.025     6.554264E-7
         4283.744     6.512241E-7
         4288.464     6.518995E-7
         4293.194     6.525755E-7
         4297.925     6.532511E-7
         4302.661     6.405385E-7
         4307.406     6.172973E-7
         4312.152     6.048533E-7
         4316.909     6.054705E-7
         4321.665     6.060874E-7
         4326.432     6.067051E-7
         4331.199     6.012561E-7
         4335.971     5.776895E-7
         4340.753     5.578449E-7
         4345.537     5.584036E-7
          4350.33     5.589630E-7
         4355.123     5.595143E-7
         4359.926     5.600671E-7
          4364.73     5.365174E-7
          4369.54     5.125193E-7
         4374.359     5.106738E-7
         4379.179     5.111768E-7
         4384.009     5.116804E-7
          4388.84     5.121843E-7
          4393.68     5.126825E-7
         4398.521     5.131789E-7
         4403.368     5.136810E-7
         4408.225     5.141864E-7
         4413.082     4.988236E-7
          4417.95     4.742290E-7
         4422.817     4.641146E-7
         4427.696     4.645641E-7
         4432.574     4.650095E-7
         4437.458     4.654519E-7
         4442.353     4.658984E-7
         4447.248     4.663481E-7
         4452.153     4.556296E-7
         4457.059     4.305941E-7
          4461.97     4.157183E-7
         4466.891     4.161135E-7
         4471.813     4.165088E-7
         4476.745     4.169046E-7
         4481.678     4.173006E-7
         4486.618     4.176970E-7
         4491.564     4.180938E-7
         4496.514     4.184904E-7
         4501.473     4.116606E-7
         4506.433     3.875583E-7
         4511.401     3.705766E-7
         4516.375     3.723844E-7
         4521.355     3.741967E-7
         4526.337     3.760135E-7
         4531.325     3.778313E-7
          4536.32     3.796486E-7
         4541.321     3.814682E-7
         4546.328     3.832900E-7
         4551.339     3.851157E-7
         4556.357     3.869481E-7
          4561.38     3.811175E-7
         4566.406     3.548668E-7
          4571.44     3.363824E-7
         4576.479     3.379563E-7
         4581.527     3.395332E-7
         4586.575     3.411105E-7
         4591.632     3.426907E-7
         4596.691     3.442723E-7
         4601.758     3.458566E-7
         4606.832     3.474432E-7
          4611.91     3.490318E-7
         4616.994     3.506225E-7
         4622.084     3.522131E-7
          4627.18     3.538028E-7
         4632.278     3.419036E-7
         4637.385     3.130563E-7
         4642.497     2.988302E-7
         4647.615     3.001663E-7
         4652.738     3.015041E-7
         4657.868     3.028436E-7
         4663.002     3.041820E-7
         4668.141     3.055199E-7
         4673.287     3.068631E-7
         4678.438     3.082097E-7
         4683.596     3.095582E-7
         4688.759     3.109084E-7
         4693.928     3.122566E-7
           4699.1     3.136048E-7
         4704.281     3.149594E-7
         4709.467     3.163167E-7
         4714.658     3.176714E-7
         4719.856     3.190275E-7
         4725.059     2.879723E-7
         4730.268     2.574032E-7
          4735.48     2.584916E-7
         4740.701     2.595827E-7
         4745.927     2.606786E-7
         4751.159     2.617749E-7
         4756.396     2.628695E-7
          4761.64     2.639667E-7
         4766.889     2.650683E-7
         4772.142     2.661708E-7
         4777.402     2.672755E-7
         4782.669     2.683794E-7
         4787.941     2.694826E-7
          4793.22     2.705899E-7
         4798.504     2.717003E-7
         4803.791     2.728114E-7
         4809.087     2.739247E-7
         4814.389     2.750360E-7
         4819.696     2.761477E-7
         4825.009     2.772652E-7
         4830.328     2.761007E-7
         4835.653     2.400017E-7
         4840.981     2.104698E-7
         4846.318     2.113126E-7
         4851.661     2.121554E-7
         4857.009     2.129967E-7
         4862.364     2.138408E-7
         4867.724     2.146880E-7
          4873.09     2.155362E-7
         4878.457     2.163847E-7
         4883.838     2.172356E-7
         4889.222     2.180872E-7
         4894.612     2.189399E-7
         4900.008     2.197937E-7
         4905.409     2.206521E-7
         4910.814     2.215108E-7
         4916.228     2.223680E-7
         4921.648     2.232264E-7
         4927.074     2.240858E-7
         4932.505     2.249463E-7
          4937.94     2.258074E-7
         4943.386     2.266730E-7
         4948.833     2.275404E-7
         4954.289     2.284093E-7
          4959.75     2.292793E-7
         4965.216     2.301463E-7
         4970.692     2.310157E-7
         4976.169     2.318888E-7
         4981.658     2.327640E-7
         4987.146     2.336394E-7
         4992.642     2.138659E-7
         4998.148     1.714578E-7
         5003.656     1.575949E-7
         5009.174     1.583020E-7
         5014.694     1.590095E-7
         5020.219     1.597180E-7
         5025.756     1.604307E-7
         5031.294     1.611431E-7
         5036.843     1.618552E-7
         5042.394     1.625688E-7
         5047.955     1.632854E-7
         5053.517     1.640006E-7
         5059.085     1.647157E-7
         5064.665     1.654348E-7
         5070.246     1.661548E-7
         5075.838     1.668764E-7
         5081.431     1.675975E-7
         5087.036     1.683183E-7
         5092.641     1.690406E-7
         5098.252     1.697654E-7
         5103.875     1.704919E-7
         5109.499     1.712188E-7
         5115.134     1.719474E-7
         5120.771     1.726763E-7
         5126.418     1.734068E-7
         5132.067     1.741366E-7
         5137.722     1.748656E-7
         5143.389     1.755979E-7
         5149.056     1.763318E-7
         5154.735     1.770675E-7
         5160.415     1.778034E-7
         5166.107     1.785410E-7
         5171.799     1.792789E-7
         5177.498     1.800180E-7
         5183.208     1.807570E-7
         5188.919     1.814949E-7
         5194.643     1.822369E-7
         5200.366     1.829796E-7
         5206.102     1.837213E-7
         5211.838     1.844643E-7
         5217.581     1.852102E-7
         5223.336     1.859562E-7
         5229.091     1.867012E-7
         5234.859     1.874479E-7
         5240.627     1.881949E-7
         5246.407     1.889434E-7
         5252.188     1.896936E-7
         5257.975     1.904468E-7
         5263.774     1.911975E-7
         5269.574     1.919460E-7
         5275.383     1.408311E-7
         5281.199     9.672666E-8
         5287.018     9.710416E-8
          5292.85     9.748171E-8
         5298.682     9.785846E-8
         5304.523     9.823592E-8
         5310.371     9.861400E-8
         5316.228     9.899436E-8
         5322.085     9.937364E-8
          5327.95     9.975109E-8
         5333.826     1.001306E-7
         5339.703     1.005107E-7
          5345.59     1.008917E-7
         5351.483     1.012726E-7
         5357.385     1.016529E-7
         5363.289     1.020332E-7
         5369.198     1.024141E-7
         5375.117     1.027941E-7
         5381.042     1.031745E-7
         5386.978     1.035572E-7
         5392.914     1.039391E-7
         5398.858     1.043206E-7
         5404.807     1.047024E-7
         5410.766     1.050849E-7
          5416.73     1.054678E-7
         5422.702     1.058504E-7
          5428.68     1.062324E-7
         5434.665     1.066148E-7
         5440.656     1.069977E-7
         5446.651     1.073808E-7
         5452.655     1.077637E-7
         5458.666     1.081459E-7
         5464.684     1.085286E-7
         5470.708     1.089115E-7
         5476.739     1.092930E-7
         5482.777     1.096749E-7
         5488.818     1.100571E-7
         5494.869     1.104399E-7
         5500.926     1.108190E-7
         5506.991     1.111751E-7
         5513.062     1.115313E-7
         5519.139     1.118877E-7
         5525.221     1.122442E-7
         5531.312     1.126007E-7
          5537.41     1.129556E-7
         5543.514     1.133096E-7
         5549.625     1.136629E-7
         5555.743     1.140182E-7
         5561.868     1.143732E-7
         5567.996     1.147267E-7
         5574.134     1.150807E-7
         5580.279     1.154347E-7
         5586.431     1.157867E-7
          5592.59     1.161390E-7
         5598.755     1.164913E-7
         5604.927     1.167241E-7
         5611.103     1.169266E-7
         5617.289     1.171293E-7
         5623.481     1.173309E-7
         5629.681     1.175316E-7
         5635.887     1.177321E-7
           5642.1     1.179327E-7
         5648.316     1.181334E-7
         5654.543     1.183341E-7
         5660.777     1.185349E-7
         5667.018     1.187356E-7
         5673.265     1.189353E-7
         5679.519     1.191338E-7
          5685.78     1.193325E-7
         5692.045     1.195310E-7
          5698.32     1.197295E-7
         5704.602     1.199282E-7
         5710.891     1.201269E-7
         5717.187     1.203255E-7
         5723.489     1.205241E-7
         5729.799     1.207227E-7
         5736.112     1.209213E-7
         5742.436     1.211190E-7
         5748.766     1.213154E-7
         5755.104     1.215135E-7
         5761.448     1.217120E-7
           5767.8     1.219107E-7
         5774.155     1.221076E-7
         5780.521     1.223040E-7
         5786.893     1.225024E-7
         5793.272     1.226996E-7
         5799.659     1.228957E-7
         5806.053     1.230940E-7
         5812.453     1.232915E-7
         5818.858     1.234873E-7
         5825.272     1.236852E-7
         5831.694     1.238828E-7
         5838.123     1.240786E-7
         5844.559     1.242761E-7
         5851.002     1.244739E-7
         5857.453     1.246694E-7
         5863.907     1.248663E-7
         5870.368     1.204659E-7
         5876.843     3.954806E-8
         5883.321              0.
         5889.807              0.
           5896.3              0.
           5902.8              0.
         5909.304              0.
         5915.819              0.
          5922.34              0.
         5928.869              0.
         5935.405              0.
         5941.945              0.
         5948.492              0.
         5955.053              0.
         5961.618              0.
          5968.19              0.
         5974.767              0.
         5981.356              0.
         5987.947              0.
         5994.548              0.
         6001.157              0.
         6007.769              0.
         6014.396              0.
         6021.022              0.
         6027.663              0.
         6034.308              0.
         6040.954              0.
         6047.617              0.
          6054.28              0.
         6060.958              0.
         6067.636              0.
         6074.329              0.
         6081.021              0.
         6087.722              0.
         6094.437              0.
         6101.152              0.
         6107.878              0.
         6114.611              0.
         6121.355              0.
           6128.1              0.
         6134.853              0.
         6141.616              0.
         6148.386              0.
         6155.167              0.
          6161.95              0.
         6168.746              0.
          6175.54              0.
         6182.348              0.
         6189.163              0.
         6195.986              0.
          6202.82              0.
         6209.655              0.
         6216.497              0.
          6223.35              0.
         6230.211              0.
         6237.083              0.
         6243.955              0.
         6250.838              0.
         6257.729              0.
         6264.624              0.
          6271.53              0.
         6278.444              0.
         6285.366              0.
         6292.294              0.
         6299.231              0.
         6306.176              0.
         6313.124              0.
         6320.084              0.
         6327.051              0.
         6334.026              0.
         6341.009              0.
         6347.999              0.
         6354.994              0.
            6362.              0.
         6369.013              0.
         6376.034              0.
         6383.063              0.
           6390.1              0.
         6397.145              0.
         6404.193              0.
         6411.253              0.
         6418.321              0.
         6425.397              0.
          6432.48              0.
         6439.571              0.
          6446.67              0.
         6453.774              0.
         6460.889              0.
         6468.011              0.
         6475.142              0.
          6482.28              0.
         6489.426              0.
         6496.576              0.
         6503.738              0.
         6510.908              0.
         6518.085              0.
         6525.271              0.
         6532.465              0.
         6539.666              0.
         6546.872              0.
         6554.089              0.
         6561.314              0.
         6568.548              0.
         6575.789              0.
         6583.038              0.
         6590.295              0.
         6597.557              0.
          6604.83              0.
         6612.111              0.
           6619.4              0.
         6626.698              0.
         6634.003              0.
         6641.316              0.
         6648.634              0.
         6655.964              0.
         6663.301              0.
         6670.647              0.
         6678.001              0.
         6685.363              0.
         6692.729              0.
         6700.107              0.
         6707.494              0.
         6714.888              0.
         6722.291              0.
         6729.701              0.
          6737.12              0.
         6744.543              0.
         6751.979              0.
         6759.422              0.
         6766.874              0.
         6774.333              0.
         6781.802              0.
         6789.278              0.
         6796.759              0.
         6804.251              0.
         6811.752              0.
         6819.262              0.
          6826.78              0.
         6834.306              0.
         6841.836              0.
         6849.378              0.
         6856.929              0.
         6864.488              0.
         6872.056              0.
         6879.632              0.
         6887.216              0.
         6894.805              0.
         6902.405              0.
         6910.015              0.
         6917.632              0.
         6925.258              0.
         6932.893              0.
         6940.536              0.
         6948.183              0.
         6955.839              0.
         6963.511              0.
         6971.188              0.
         6978.873              0.
         6986.566              0.
         6994.261              0.
         7001.975              0.
         7009.694              0.
         7017.422              0.
         7025.158              0.
         7032.902              0.
         7040.652              0.
          7048.41              0.
         7056.184              0.
         7063.962              0.
          7071.75              0.
         7079.542              0.
          7087.35              0.
          7095.16              0.
         7102.981              0.
         7110.812              0.
         7118.647              0.
         7126.499              0.
         7134.351              0.
          7142.22              0.
         7150.089              0.
         7157.968              0.
         7165.863              0.
         7173.758              0.
         7181.671              0.
         7189.584              0.
         7197.514              0.
         7205.444              0.
         7213.384              0.
          7221.34              0.
         7229.297              0.
         7237.271              0.
         7245.245              0.
         7253.236              0.
         7261.228              0.
         7269.229              0.
         7277.243              0.
         7285.265              0.
           7293.3              0.
         7301.336              0.
         7309.381              0.
         7317.439              0.
         7325.506              0.
         7333.586              0.
         7341.667              0.
         7349.764              0.
         7357.863              0.
          7365.97              0.
          7374.09              0.
         7382.219              0.
         7390.362              0.
         7398.505              0.
         7406.661              0.
         7414.826              0.
         7422.996              0.
         7431.184              0.
         7439.372              0.
         7447.573              0.
         7455.783              0.
         7464.002              0.
         7472.231              0.
         7480.464              0.
          7488.71              0.
         7496.966              0.
         7505.231              0.
         7513.505              0.
         7521.788              0.
         7530.076              0.
         7538.377              0.
         7546.688              0.
         7555.007              0.
         7563.335              0.
         7571.673              0.
         7580.021              0.
         7588.373              0.
         7596.738              0.
         7605.113              0.
         7613.497              0.
          7621.89              0.
         7630.292              0.
         7638.704              0.
         7647.121              0.
         7655.551              0.
         7663.991              0.
         7672.439              0.
         7680.897              0.
         7689.365              0.
         7697.838              0.
         7706.324              0.
         7714.819              0.
         7723.324              0.
         7731.838              0.
         7740.362              0.
         7748.895              0.
         7757.434              0.
         7765.985              0.
         7774.546              0.
         7783.117              0.
         7791.697              0.
         7800.287              0.
         7808.886              0.
          7817.49              0.
         7826.108              0.
         7834.736              0.
         7843.373              0.
          7852.02              0.
         7860.676              0.
         7869.337              0.
         7878.013              0.
         7886.697              0.
         7895.392              0.
         7904.096              0.
         7912.809              0.
         7921.532              0.
         7930.261              0.
         7939.003              0.
         7947.755              0.
         7956.517              0.
         7965.288              0.
         7974.069              0.
          7982.86              0.
         7991.656     5.387724E-9
         8000.466     3.240586E-8
         8009.286     3.251460E-8
         8018.115     3.261990E-8
         8026.954     3.272185E-8
         8035.803     3.282048E-8
         8044.658     3.291570E-8
         8053.526     3.300758E-8
         8062.404     3.309613E-8
         8071.292     3.318139E-8
          8080.19     3.326328E-8
         8089.098     3.334184E-8
         8098.016     3.341716E-8
         8106.938     3.337981E-8
         8115.875     3.330937E-8
         8124.822     3.323740E-8
         8133.779     3.316391E-8
         8142.746     3.308891E-8
         8151.723     3.301237E-8
         8160.709     3.293430E-8
         8169.701     3.285476E-8
         8178.708     3.277370E-8
         8187.724     3.269111E-8
          8196.75     3.260702E-8
         8205.786     3.267818E-8
         8214.832     3.283325E-8
         8223.884     3.298351E-8
          8232.95     3.312915E-8
         8242.026     3.327007E-8
         8251.112     3.340622E-8
         8260.208     3.353774E-8
         8269.314     3.366458E-8
         8278.431     3.378675E-8
         8287.552     3.390415E-8
         8296.688     3.401700E-8
         8305.835     3.409566E-8
         8314.991     3.415348E-8
         8324.153     3.420729E-8
         8333.334     3.425719E-8
         8342.521     3.430314E-8
         8351.713     3.437508E-8
          8360.92     3.457492E-8
         8370.138     3.477219E-8
         8379.365     3.496676E-8
         8388.603     3.515864E-8
          8397.85     3.534775E-8
         8407.104     3.553465E-8
         8416.371     3.571899E-8
         8425.649     3.590047E-8
         8434.934     3.607899E-8
         8444.236     3.625473E-8
         8453.546     3.642745E-8
         8462.865     3.659714E-8
         8472.189     3.676372E-8
         8481.525     3.692724E-8
          8490.88     3.708780E-8
          8500.24     3.724363E-8
         8509.611     3.734027E-8
         8518.987     3.743379E-8
         8528.384     3.752427E-8
          8537.78     3.761155E-8
         8547.188     3.769566E-8
         8556.615     3.777666E-8
         8566.043     3.785431E-8
         8575.486     3.792874E-8
          8584.94     3.799985E-8
         8594.409     3.806760E-8
         8603.879     3.805220E-8
         8613.359     3.791958E-8
         8622.854     3.778505E-8
          8632.36     3.764868E-8
         8641.882     3.751039E-8
         8651.403     3.736942E-8
         8660.937     3.722093E-8
         8670.484     3.707053E-8
         8680.043     3.691832E-8
         8689.611     3.676426E-8
         8699.191     3.660826E-8
         8708.781     3.636832E-8
         8718.382     3.611973E-8
         8727.988     3.587033E-8
          8737.61     3.561976E-8
         8747.242     3.536822E-8
         8756.886     3.511571E-8
         8766.539     3.486221E-8
         8776.203     3.460772E-8
         8785.879     3.435221E-8
          8795.56     3.409586E-8
         8805.256     3.398070E-8
         8814.963     3.398247E-8
         8824.681     3.398018E-8
         8834.408     3.397378E-8
         8844.147     3.396321E-8
         8853.893     3.394845E-8
         8863.653     3.392944E-8
         8873.425     3.390615E-8
         8883.207     3.387852E-8
            8893.     3.384654E-8
         8902.804     3.368146E-8
         8912.618     3.319447E-8
         8922.438     3.270937E-8
         8932.274     3.222572E-8
         8942.122     3.174370E-8
         8951.979     3.126237E-8
         8961.849     3.077849E-8
         8971.728     3.029665E-8
         8981.618     2.981680E-8
         8991.515     2.933924E-8
         9001.427     2.888322E-8
         9011.351     2.854535E-8
         9021.284     2.820771E-8
         9031.229     2.787029E-8
         9041.186     2.753311E-8
         9051.147     2.719639E-8
         9061.126     2.685971E-8
         9071.115     2.652333E-8
         9081.115     2.618724E-8
         9091.126     2.585147E-8
         9101.148     2.550783E-8
         9111.182     2.510201E-8
         9121.221     2.469799E-8
         9131.276     2.429536E-8
         9141.343     2.389437E-8
          9151.42     2.349510E-8
         9161.509     2.309749E-8
         9171.608     2.270161E-8
         9181.719     2.230755E-8
         9191.836     2.191544E-8
          9201.97     2.156992E-8
         9212.113     2.141002E-8
          9222.27     2.124723E-8
         9232.436     2.108154E-8
         9242.613     2.091293E-8
         9252.798     2.074053E-8
         9262.998     2.056273E-8
          9273.21     2.038196E-8
         9283.433     2.019829E-8
         9293.667     2.001161E-8
         9303.912     1.976400E-8
         9314.169     1.942212E-8
         9324.432     1.908119E-8
         9334.711     1.874085E-8
         9345.002     1.840129E-8
         9355.304     1.806257E-8
         9365.617     1.772466E-8
         9375.941     1.738761E-8
         9386.278     1.705138E-8
          9396.62     1.671624E-8
         9406.979     1.638254E-8
          9417.35     1.605011E-8
         9427.731     1.571856E-8
         9438.124     1.538795E-8
         9448.529     1.505821E-8
          9458.94     1.472962E-8
         9469.368     1.440184E-8
         9479.807     1.407504E-8
         9490.258     1.374922E-8
          9500.72     1.343531E-8
         9511.193     1.326832E-8
         9521.679     1.310058E-8
          9532.17     1.293217E-8
         9542.679     1.276292E-8
         9553.198     1.259296E-8
         9563.729     1.242226E-8
         9574.272     1.225083E-8
         9584.828     1.207866E-8
         9595.395     1.190578E-8
         9605.967     1.159200E-8
         9616.557     1.117556E-8
         9627.158     1.076686E-8
         9637.771     1.036594E-8
         9648.396     9.972717E-9
         9659.032     9.587230E-9
         9669.681     9.209459E-9
         9680.335     8.839625E-9
         9691.007     8.477284E-9
          9701.69     8.130334E-9
         9712.386     7.830767E-9
         9723.093     7.536972E-9
         9733.812     7.248944E-9
         9744.536     6.966831E-9
         9755.279     6.688433E-9
         9766.033     6.414107E-9
           9776.8     6.145778E-9
         9787.577     5.883473E-9
         9798.367     5.627128E-9
         9809.169     5.461195E-9
         9819.978     5.311728E-9
         9830.803     5.163169E-9
         9841.641     5.015577E-9
          9852.49     4.868969E-9
         9863.352     4.723348E-9
         9874.225     4.578715E-9
          9885.11     4.435062E-9
         9896.003     4.292466E-9
         9906.912     4.112153E-9
         9917.828     3.913713E-9
         9928.767     3.719921E-9
         9939.713     3.531015E-9
          9950.67     3.346944E-9
         9961.634     3.167741E-9
          9972.61     2.993306E-9
          9983.61     2.823452E-9
         9994.616     2.658438E-9
         10005.63     2.546164E-9
         10016.66     2.481416E-9
         10027.71     2.417206E-9
         10038.76     2.353669E-9
         10049.82     2.290726E-9
          10060.9     2.228333E-9
         10071.99     2.166607E-9
          10083.1     2.105422E-9
         10094.21     2.044909E-9
         10105.34    9.253164E-10
         10116.47              0.
         10127.62     3.579858E-9
         10138.79    5.500719E-10
         10149.96     4.395941E-9
         10161.16     8.048183E-9
         10172.35     3.159523E-9
         10183.56     2.847187E-9
         10194.79     5.867101E-9
         10206.03     5.968699E-9
         10217.29     1.949422E-9
         10228.54              0.
         10239.83     3.269363E-9
         10251.11     3.198325E-9
          10262.4     3.070512E-9
         10273.72     4.039667E-9
         10285.04     7.059418E-9
         10296.39     2.922526E-9
         10307.73              0.
          10319.1     6.695611E-9
         10330.47     4.446774E-9
         10341.85              0.
         10353.26    6.842160E-10
         10364.67     1.057924E-9
          10376.1              0.
         10387.53     2.649269E-9
         10398.99    3.331491E-10
         10410.45    2.065096E-10
         10421.92     3.470505E-9
         10433.41              0.
         10444.91    5.993668E-10
         10456.43     2.555201E-9
         10467.95    6.246579E-10
          10479.5              0.
         10491.04              0.
          10502.6    1.921207E-10
         10514.19     1.619765E-9
         10525.77     1.583512E-9
         10537.38     2.682074E-9
         10548.99     1.517506E-9
         10560.63     7.399450E-9
         10572.26     2.402513E-9
         10583.91              0.
         10595.59    3.263115E-10
         10607.26    5.658578E-10
         10618.96    5.478626E-10
         10630.66     1.095328E-9
         10642.38     2.146505E-9
         10654.11     2.332531E-9
         10665.85              0.
         10677.62              0.
         10689.38              0.
         10701.17     1.184938E-9
         10712.96    4.123375E-10
         10724.77    3.964588E-10
          10736.6    1.295993E-10
         10748.43     1.231657E-9
         10760.27     1.031835E-9
         10772.14    2.636239E-10
         10784.01    3.854018E-10
          10795.9    9.184998E-10
         10807.81    4.199160E-10
         10819.72    7.846016E-12
         10831.65    2.206408E-10
         10843.57              0.
         10855.53    1.314964E-10
         10867.51     1.405148E-9
         10879.48    6.905647E-10
         10891.48    7.681654E-10
         10903.48    4.964311E-10
          10915.5    2.541493E-10
         10927.52    2.865667E-10
         10939.58    1.584953E-10
         10951.64    3.762278E-10
         10963.71    2.262455E-10
         10975.79    2.195290E-10
         10987.88    1.087394E-10
           11000.    1.970974E-10
