#  Table wf4f170wsys.tab  Mon 12:22:42 02-Jun-97

#      WAVELENGTH      THROUGHPUT
#       angstroms                

            1216.     3.163135E-5
          1217.34     3.259287E-5
         1218.682     3.357296E-5
         1220.026     3.457100E-5
         1221.371     3.548170E-5
         1222.717     3.640680E-5
         1224.065     3.734757E-5
         1225.414     3.830352E-5
         1226.765     3.927496E-5
         1228.117     4.026200E-5
         1229.471     4.126478E-5
         1230.826     4.251040E-5
         1232.183     4.392185E-5
         1233.542     4.535414E-5
         1234.901     4.680550E-5
         1236.262     4.827809E-5
         1237.625     4.977078E-5
         1238.989     5.128524E-5
         1240.355     5.279524E-5
         1241.722     5.424652E-5
         1243.091     5.571473E-5
         1244.461     5.719918E-5
         1245.833     5.869936E-5
         1247.207     6.021752E-5
         1248.582     6.175181E-5
         1249.957     6.330203E-5
         1251.335     6.478420E-5
         1252.715     6.627685E-5
         1254.095     6.778196E-5
         1255.478     6.930168E-5
         1256.862     7.083407E-5
         1258.247     7.237909E-5
         1259.634     7.393838E-5
         1261.023     7.546832E-5
         1262.413     7.699379E-5
         1263.805     7.852992E-5
         1265.198     8.007665E-5
         1266.592     8.163337E-5
         1267.989     8.320174E-5
         1269.387     8.478169E-5
         1270.786     8.632720E-5
         1272.187     8.784804E-5
         1273.588     8.937628E-5
         1274.992     9.091356E-5
         1276.399     9.245975E-5
         1277.805     9.401277E-5
         1279.214     9.557461E-5
         1280.624     9.711517E-5
         1282.035     9.862399E-5
         1283.449     1.001405E-4
         1284.864     1.016625E-4
          1286.28     1.031897E-4
         1287.698     1.047241E-4
         1289.117     1.062646E-4
         1290.538     1.079189E-4
         1291.961     1.097557E-4
         1293.385     1.115981E-4
         1294.811     1.134457E-4
         1296.238     1.152998E-4
         1297.668     1.171608E-4
         1299.098     1.190258E-4
          1300.53     1.208836E-4
         1301.963     1.227229E-4
         1303.398     1.245658E-4
         1304.835     1.264142E-4
         1306.274     1.282681E-4
         1307.713     1.301247E-4
         1309.155     1.319869E-4
         1310.597     1.338393E-4
         1312.042     1.356777E-4
         1313.489     1.375195E-4
         1314.937     1.393659E-4
         1316.386     1.412138E-4
         1317.837     1.430663E-4
          1319.29     1.449213E-4
         1320.744     1.472592E-4
           1322.2     1.500588E-4
         1323.657     1.528625E-4
         1325.117     1.556709E-4
         1326.578     1.584836E-4
         1328.039     1.612991E-4
         1329.503     1.641206E-4
         1330.969     1.669273E-4
         1332.436     1.697274E-4
         1333.905     1.725310E-4
         1335.376     1.753375E-4
         1336.847     1.781457E-4
         1338.321     1.809583E-4
         1339.796     1.837738E-4
         1341.273     1.865735E-4
         1342.752     1.893726E-4
         1344.232     1.921739E-4
         1345.713     1.949756E-4
         1347.197     1.977809E-4
         1348.682     2.005882E-4
         1350.169     2.036051E-4
         1351.657     2.082488E-4
         1353.146     2.128934E-4
         1354.638     2.175201E-4
         1356.131     2.221173E-4
         1357.627     2.267180E-4
         1359.123     2.313140E-4
         1360.621     2.359081E-4
         1362.121     2.404959E-4
         1363.622     2.450808E-4
         1365.126     2.496702E-4
          1366.63     2.542543E-4
         1368.137     2.588404E-4
         1369.645     2.634260E-4
         1371.155     2.680079E-4
         1372.667     2.725936E-4
          1374.18     2.771759E-4
         1375.694     2.817552E-4
         1377.211     2.863356E-4
         1378.729     2.909148E-4
         1380.249     2.963135E-4
         1381.771     3.059053E-4
         1383.294     3.154968E-4
         1384.818     3.250825E-4
         1386.345     3.346722E-4
         1387.874     3.442664E-4
         1389.403     3.538489E-4
         1390.935     3.634523E-4
         1392.468     3.730655E-4
         1394.002     3.826741E-4
          1395.54     3.922925E-4
         1397.078     4.019051E-4
         1398.618     4.115120E-4
          1400.16     4.211277E-4
         1401.703     4.307814E-4
         1403.248     4.404307E-4
         1404.795     4.500909E-4
         1406.343     4.597417E-4
         1407.894     4.693985E-4
         1409.446     4.790555E-4
         1410.999     4.927616E-4
         1412.555     5.087384E-4
         1414.112     5.247107E-4
          1415.67     5.406771E-4
         1417.231     5.566547E-4
         1418.793     5.726347E-4
         1420.357     5.886136E-4
         1421.923     6.045836E-4
         1423.491     6.205544E-4
         1425.059     6.365181E-4
          1426.63     6.524905E-4
         1428.203     6.684628E-4
         1429.777     6.844347E-4
         1431.354     7.003607E-4
         1432.932     7.162758E-4
          1434.51     7.321798E-4
         1436.092     7.480881E-4
         1437.676     7.640006E-4
          1439.26     7.798924E-4
         1440.847     7.981179E-4
         1442.435     8.183715E-4
         1444.024     8.386033E-4
         1445.617     8.588439E-4
          1447.21     8.790491E-4
         1448.805     8.992531E-4
         1450.402     9.193910E-4
         1452.001     9.393445E-4
         1453.602     9.592926E-4
         1455.205     9.792077E-4
         1456.808     9.990865E-4
         1458.414     0.001018949
         1460.022     0.001038783
         1461.631       0.0010583
         1463.243     0.001077777
         1464.856     0.001097214
          1466.47       0.0011166
         1468.086     0.001135957
         1469.706     0.001155282
         1471.325     0.001174199
         1472.947     0.001192991
         1474.571     0.001211724
         1476.196     0.001230391
         1477.824     0.001249015
         1479.453     0.001267569
         1481.083     0.001285692
         1482.716     0.001303566
          1484.35     0.001321358
         1485.987     0.001339069
         1487.625      0.00135773
         1489.264     0.001378013
         1490.906     0.001397907
         1492.549     0.001417453
         1494.195     0.001436954
         1495.842     0.001456407
         1497.491     0.001475811
         1499.142     0.001495164
         1500.794     0.001510177
         1502.449     0.001520491
         1504.105     0.001530699
         1505.763     0.001540815
         1507.423     0.001550834
         1509.084     0.001560748
         1510.748     0.001570294
         1512.414     0.001579385
          1514.08     0.001588355
         1515.749     0.001597212
         1517.419     0.001605946
         1519.093     0.001614568
         1520.768     0.001622886
         1522.444     0.001630865
         1524.122     0.001638709
         1525.802     0.001646423
         1527.484     0.001654002
         1529.168     0.001661446
         1530.854     0.001665887
          1532.54     0.001667418
          1534.23     0.001668842
         1535.921     0.001670159
         1537.615     0.001671367
          1539.31     0.001672465
         1541.006     0.001673499
         1542.705     0.001674455
         1544.405     0.001675301
         1546.109     0.001673328
         1547.812     0.001669811
         1549.518     0.001666199
         1551.227     0.001662717
         1552.936     0.001659234
         1554.648     0.001655659
         1556.363     0.001651992
         1558.078     0.001648237
         1559.795     0.001644392
         1561.515     0.001635193
         1563.235     0.001625273
         1564.958     0.001615341
         1566.685     0.001605395
         1568.411     0.001595452
          1570.14     0.001585556
         1571.871      0.00157634
         1573.603     0.001567122
         1575.338      0.00155789
         1577.075     0.001548645
         1578.813     0.001539401
         1580.553     0.001530455
         1582.295     0.001522173
         1584.039     0.001513878
         1585.785     0.001505574
         1587.534     0.001497261
         1589.284      0.00148894
         1591.036     0.001480889
          1592.79     0.001473029
         1594.545     0.001465169
         1596.303     0.001457303
         1598.062     0.001449434
         1599.824     0.001441562
         1601.588     0.001434855
         1603.353     0.001428277
          1605.12     0.001421692
          1606.89     0.001415102
         1608.661     0.001408507
         1610.434     0.001402242
          1612.21     0.001396998
         1613.986     0.001391753
         1615.765     0.001386499
         1617.548     0.001381236
          1619.33     0.001375974
         1621.115     0.001371964
         1622.902     0.001368701
          1624.69     0.001365432
         1626.482     0.001362151
         1628.275     0.001358864
         1630.069     0.001355623
         1631.867      0.00135374
         1633.665     0.001351851
         1635.466     0.001349953
         1637.269     0.001348049
         1639.074     0.001346138
          1640.88     0.001344941
         1642.689     0.001344495
           1644.5     0.001344046
         1646.313     0.001343593
         1648.128     0.001343215
         1649.944     0.001343887
         1651.763     0.001345427
         1653.585     0.001346995
         1655.407      0.00134856
         1657.232     0.001350126
         1659.058     0.001351689
         1660.888     0.001353936
         1662.719      0.00135691
         1664.552     0.001359889
         1666.386     0.001362873
         1668.223     0.001365863
         1670.062     0.001368903
         1671.903     0.001373164
         1673.746     0.001377438
          1675.59     0.001381722
         1677.437     0.001386022
         1679.287     0.001390335
         1681.139     0.001394336
         1682.991     0.001398135
         1684.847     0.001401942
         1686.704     0.001405754
         1688.563     0.001409569
         1690.425     0.001413612
         1692.287     0.001418398
         1694.153     0.001423196
         1696.021     0.001428002
          1697.89     0.001432816
         1699.762     0.001437644
         1701.636     0.001443201
         1703.512     0.001448876
         1705.389     0.001454562
         1707.269     0.001460264
         1709.151     0.001465979
         1711.035       0.0014723
         1712.922     0.001479126
         1714.809     0.001485972
         1716.699     0.001492841
         1718.592     0.001499733
         1720.485     0.001506789
         1722.383     0.001514304
         1724.281     0.001521835
         1726.182     0.001529395
         1728.086     0.001536986
          1729.99     0.001544594
         1731.897     0.001552707
         1733.806     0.001560852
         1735.718     0.001569025
          1737.63     0.001577223
         1739.546     0.001585452
         1741.463     0.001593683
         1743.383     0.001601931
         1745.305     0.001610204
         1747.228     0.001618498
         1749.154     0.001626823
         1751.084     0.001633745
         1753.013     0.001639551
         1754.946     0.001645364
          1756.88      0.00165118
         1758.817     0.001656999
         1760.756     0.001662905
         1762.697     0.001668944
         1764.639     0.001674985
         1766.585     0.001681031
         1768.532     0.001687081
         1770.482     0.001692744
         1772.434     0.001697208
         1774.387     0.001701654
         1776.343     0.001706082
         1778.301     0.001710496
         1780.262     0.001714921
         1782.224     0.001719493
         1784.189      0.00172405
         1786.156     0.001728589
         1788.124     0.001733109
         1790.096     0.001737625
         1792.068     0.001742317
         1794.044     0.001746994
         1796.022     0.001751652
         1798.001     0.001756289
         1799.984     0.001760911
         1801.968     0.001762797
         1803.954     0.001764607
         1805.942     0.001766362
         1807.933     0.001768065
         1809.926     0.001769713
         1811.922     0.001771493
         1813.919     0.001773224
         1815.918     0.001774898
          1817.92     0.001776515
         1819.925     0.001778075
          1821.93      0.00177975
         1823.938     0.001781374
         1825.948     0.001782936
         1827.962     0.001784441
         1829.976     0.001785884
         1831.995     0.001786365
         1834.013     0.001786761
         1836.035     0.001787081
         1838.059     0.001787324
         1840.084     0.001787498
         1842.113     0.001787755
         1844.144     0.001787933
         1846.177     0.001788031
         1848.212     0.001788049
         1850.248     0.001788007
         1852.288     0.001788031
          1854.33     0.001787973
         1856.375      0.00178783
         1858.421     0.001787602
         1860.469     0.001786785
          1862.52     0.001784169
         1864.573     0.001781434
         1866.628     0.001778581
         1868.686      0.00177561
         1870.746     0.001772577
         1872.808     0.001769522
         1874.872     0.001766347
         1876.939     0.001763047
         1879.008     0.001759616
         1881.079      0.00175465
         1883.153     0.001749636
         1885.229     0.001744497
         1887.307     0.001739235
         1889.387     0.001733845
         1891.471     0.001725698
         1893.555     0.001716301
         1895.643     0.001706728
         1897.732     0.001696984
         1899.823     0.001687072
         1901.919     0.001677117
         1904.014      0.00166701
         1906.113     0.001656719
         1908.215      0.00164625
         1910.317     0.001635626
         1912.424     0.001624924
         1914.532     0.001614049
         1916.643     0.001602979
         1918.755     0.001591734
          1920.87     0.001581197
         1922.988     0.001571775
         1925.107     0.001562189
          1927.23     0.001552426
         1929.354     0.001542502
         1931.481     0.001532483
          1933.61     0.001522326
          1935.74     0.001512001
         1937.875      0.00150149
         1940.011     0.001490814
         1942.149     0.001480037
          1944.29     0.001469082
         1946.434     0.001457947
          1948.58      0.00144663
         1950.728     0.001434112
         1952.878     0.001419398
          1955.03     0.001404471
         1957.185     0.001389317
         1959.343     0.001373943
         1961.503     0.001358384
         1963.665     0.001342618
         1965.829     0.001326634
         1967.996     0.001310416
         1970.167     0.001293968
         1972.339     0.001277365
         1974.512     0.001260538
         1976.689     0.001243469
         1978.868     0.001226168
         1981.049     0.001211496
         1983.233     0.001199726
         1985.418     0.001187788
         1987.607     0.001175667
         1989.798     0.001163369
         1991.992     0.001150928
         1994.188     0.001138309
         1996.386     0.001125511
         1998.586      0.00111254
         2000.789     0.001099735
         2002.996     0.001087367
         2005.203     0.001074805
         2007.414     0.001062032
         2009.627     0.001049051
         2011.841      0.00103514
          2014.06     0.001020846
         2016.279     0.001006344
         2018.502     9.916093E-4
         2020.727     9.766445E-4
         2022.955     9.614439E-4
         2025.185     9.460148E-4
         2027.417     9.303545E-4
         2029.652     9.144638E-4
         2031.889     8.983387E-4
         2034.129     8.819707E-4
         2036.371     8.653657E-4
         2038.616     8.485242E-4
         2040.864     8.318698E-4
         2043.112     8.156742E-4
         2045.365     7.992439E-4
         2047.621     7.825754E-4
         2049.877     7.656947E-4
         2052.137     7.485409E-4
         2054.399     7.311561E-4
         2056.664     7.135387E-4
         2058.931     6.956853E-4
         2061.201     6.775724E-4
         2063.472     6.592111E-4
         2065.747     6.406063E-4
         2068.024     6.217627E-4
         2070.304     6.026751E-4
         2072.586     5.833118E-4
         2074.871     5.637124E-4
         2077.157     5.438793E-4
         2079.447     5.237968E-4
          2081.74     5.034255E-4
         2084.034     4.828202E-4
         2086.332     4.619647E-4
         2088.632     4.408640E-4
         2090.933     4.259109E-4
          2093.24     4.201859E-4
         2095.546     4.143919E-4
         2097.856     4.085191E-4
         2100.169     4.025316E-4
         2102.483     3.959891E-4
         2104.802     3.893586E-4
         2107.121     3.826545E-4
         2109.444     3.758650E-4
         2111.769     3.705275E-4
         2114.097     3.656094E-4
         2116.428     3.606313E-4
          2118.76     3.555953E-4
         2121.097     3.502604E-4
         2123.434     3.446050E-4
         2125.775     3.388831E-4
         2128.118     3.330970E-4
         2130.463     3.275397E-4
         2132.813     3.231003E-4
         2135.163     3.186165E-4
         2137.518     3.140790E-4
         2139.875     3.095847E-4
         2142.231     3.048273E-4
         2144.594     2.999967E-4
         2146.958     2.951152E-4
         2149.325     2.901806E-4
         2151.693     2.860558E-4
         2154.065     2.822309E-4
          2156.44     2.783657E-4
         2158.817     2.744596E-4
         2161.197     2.704033E-4
         2163.578     2.662020E-4
         2165.964     2.619573E-4
         2168.353     2.576698E-4
         2170.743     2.536688E-4
         2173.135     2.503578E-4
         2175.529     2.470166E-4
         2177.929     2.436416E-4
         2180.329     2.401820E-4
         2182.733     2.363224E-4
         2185.138     2.324355E-4
         2187.547     2.285150E-4
         2189.959     2.245630E-4
         2192.372     2.215882E-4
         2194.789     2.186075E-4
         2197.208     2.156043E-4
         2199.632     2.125776E-4
         2202.056     2.106142E-4
         2204.482     2.087784E-4
         2206.912     2.068708E-4
         2209.345     2.048918E-4
         2211.782     2.033528E-4
         2214.219     2.019450E-4
          2216.66     2.004791E-4
         2219.104     1.989556E-4
         2221.549     1.972699E-4
         2223.998     1.954632E-4
         2226.449     1.935959E-4
         2228.904     1.916677E-4
         2231.361     1.900093E-4
          2233.82     1.885662E-4
         2236.284     1.870720E-4
         2238.748     1.855294E-4
         2241.217     1.839119E-4
         2243.687     1.822222E-4
         2246.159     1.804822E-4
         2248.636     1.786898E-4
         2251.114     1.770875E-4
         2253.597     1.757333E-4
          2256.08     1.743393E-4
         2258.567     1.729033E-4
         2261.057     1.713565E-4
         2263.548     1.696741E-4
         2266.045     1.679462E-4
         2268.542     1.661762E-4
         2271.042     1.646026E-4
         2273.546     1.633298E-4
         2276.051     1.620232E-4
         2278.562     1.606806E-4
         2281.072     1.592695E-4
         2283.588     1.577747E-4
         2286.104     1.562455E-4
         2288.623     1.546803E-4
         2291.147     1.532655E-4
         2293.672     1.520461E-4
         2296.202     1.508006E-4
         2298.732     1.495836E-4
         2301.266     1.482397E-4
         2303.803     1.467675E-4
         2306.342     1.452618E-4
         2308.885     1.437203E-4
         2311.431     1.424741E-4
         2313.979     1.414570E-4
          2316.53     1.404139E-4
         2319.082     1.393453E-4
         2321.639     1.381539E-4
         2324.198     1.368809E-4
          2326.76     1.355796E-4
         2329.325     1.342500E-4
         2331.892     1.331929E-4
         2334.463     1.322193E-4
         2337.038     1.312222E-4
         2339.613     1.302034E-4
         2342.193     1.290145E-4
         2344.774     1.277762E-4
         2347.357     1.265127E-4
         2349.947     1.252224E-4
         2352.536     1.242825E-4
         2355.131     1.233295E-4
         2357.726     1.223571E-4
         2360.326     1.213506E-4
         2362.927     1.202365E-4
         2365.531     1.191007E-4
          2368.14     1.179423E-4
         2370.749     1.168658E-4
         2373.364     1.160243E-4
         2375.979     1.151667E-4
         2378.598     1.142915E-4
          2381.22     1.133433E-4
         2383.844     1.123134E-4
         2386.473     1.112640E-4
         2389.103     1.101972E-4
         2391.737     1.092915E-4
         2394.373     1.084636E-4
         2397.012     1.076209E-4
         2399.656     1.067622E-4
           2402.3     1.058146E-4
         2404.949     1.048389E-4
           2407.6     1.038479E-4
         2410.252     1.028684E-4
          2412.91     1.021272E-4
          2415.57     1.013738E-4
         2418.233     1.006077E-4
         2420.898     9.979138E-5
         2423.567     9.888696E-5
         2426.238     9.796881E-5
         2428.913     9.703670E-5
         2431.591     9.623580E-5
         2434.271     9.552240E-5
         2436.954     9.479822E-5
         2439.641     9.406206E-5
         2442.331     9.329414E-5
         2445.022     9.251202E-5
         2447.718     9.171801E-5
         2450.416     9.093404E-5
         2453.117     9.025742E-5
         2455.822     8.957074E-5
         2458.528     8.887433E-5
         2461.239     8.814396E-5
         2463.951     8.737638E-5
         2466.669     8.659745E-5
         2469.387     8.580861E-5
         2472.108     8.516824E-5
         2474.834     8.456477E-5
         2477.561     8.395321E-5
         2480.294     8.332590E-5
         2483.027     8.263700E-5
         2485.764     8.193841E-5
         2488.504     8.123044E-5
         2491.246     8.060296E-5
         2493.994     8.007426E-5
         2496.742     7.953859E-5
         2499.494     7.899494E-5
          2502.25     7.836969E-5
         2505.007     7.771971E-5
          2507.77     7.706048E-5
         2510.533     7.642509E-5
         2513.302     7.591470E-5
         2516.072     7.539761E-5
         2518.844     7.487331E-5
         2521.622     7.430511E-5
         2524.401     7.370399E-5
         2527.185     7.309436E-5
         2529.969     7.247732E-5
         2532.759     7.203365E-5
         2535.551     7.158561E-5
         2538.344     7.105407E-5
         2541.144     7.040792E-5
         2543.946     6.972011E-5
          2546.75     6.902766E-5
         2549.558     6.833050E-5
         2552.367     6.774170E-5
          2555.18     6.716952E-5
         2557.997     6.659326E-5
         2560.817     6.600091E-5
         2563.639     6.537517E-5
         2566.465     6.474477E-5
         2569.294     6.411009E-5
         2572.128     6.354044E-5
         2574.962     6.299043E-5
           2577.8     6.243658E-5
         2580.643     6.187405E-5
         2583.486     6.129363E-5
         2586.336     6.070856E-5
         2589.186     6.012009E-5
         2592.039     5.962767E-5
         2594.897     5.917134E-5
         2597.757     5.871206E-5
         2600.622     5.823974E-5
         2603.487     5.773135E-5
         2606.357     5.721899E-5
         2609.231     5.670296E-5
         2612.106     5.625466E-5
         2614.985     5.582880E-5
          2617.87     5.539944E-5
         2620.754     5.495895E-5
         2623.643     5.449133E-5
         2626.536     5.402021E-5
         2629.431     5.354561E-5
         2632.328     5.311839E-5
         2635.232     5.269985E-5
         2638.135     5.227850E-5
         2641.045     5.184571E-5
         2643.955     5.139624E-5
          2646.87     5.094312E-5
         2649.788     5.048666E-5
         2652.708     5.013118E-5
         2655.633     4.978065E-5
          2658.56     4.942760E-5
          2661.49     4.906033E-5
         2664.424     4.867921E-5
          2667.36     4.829529E-5
         2670.302     4.791450E-5
         2673.244     4.758835E-5
         2676.193     4.725917E-5
         2679.142     4.692763E-5
         2682.094     4.659509E-5
         2685.052     4.626021E-5
         2688.012     4.592280E-5
         2690.975     4.559143E-5
          2693.94     4.527547E-5
          2696.91     4.495679E-5
         2699.883     4.463553E-5
         2702.858     4.436990E-5
         2705.839     4.410275E-5
         2708.822     4.383211E-5
         2711.807     4.361360E-5
         2714.796     4.342824E-5
         2717.789     4.323999E-5
         2720.785     4.302838E-5
         2723.785     4.275576E-5
         2726.788     4.247952E-5
         2729.792     4.219979E-5
         2732.802     4.200443E-5
         2735.814     4.181273E-5
          2738.83     4.161821E-5
         2741.849     4.139612E-5
         2744.872     4.115523E-5
         2747.898     4.091111E-5
         2750.926     4.065359E-5
         2753.958     4.037101E-5
         2756.994     4.008757E-5
         2760.034     3.980292E-5
         2763.076     3.948918E-5
         2766.121     3.917463E-5
         2769.172     3.885879E-5
         2772.223     3.857278E-5
         2775.281     3.829699E-5
         2778.339     3.802064E-5
           2781.4     3.772364E-5
         2784.468     3.740192E-5
         2787.536     3.707956E-5
          2790.61     3.676984E-5
         2793.685     3.651575E-5
         2796.765     3.626080E-5
         2799.848     3.600511E-5
         2802.933     3.569356E-5
         2806.025     3.537797E-5
         2809.117     3.506180E-5
         2812.213     3.478502E-5
         2815.314     3.452363E-5
         2818.417     3.426150E-5
         2821.524     3.400525E-5
         2824.633     3.375533E-5
         2827.749     3.350447E-5
         2830.865     3.324897E-5
         2833.985     3.298167E-5
         2837.109     3.271367E-5
         2840.236     3.244718E-5
         2843.368     3.220583E-5
         2846.501     3.196407E-5
         2849.641     3.172143E-5
         2852.781     3.146494E-5
         2855.924     3.120606E-5
         2859.074     3.094623E-5
         2862.226     3.070635E-5
         2865.381     3.047440E-5
          2868.54     3.024184E-5
         2871.701     3.002436E-5
         2874.866     2.981963E-5
         2878.036     2.961437E-5
         2881.208     2.938566E-5
         2884.385     2.911901E-5
         2887.563     2.885184E-5
         2890.748     2.860836E-5
         2893.935     2.844469E-5
         2897.123     2.828071E-5
         2900.317     2.810249E-5
         2903.515     2.779959E-5
         2906.715     2.749714E-5
          2909.92     2.719511E-5
         2913.126     2.693722E-5
         2916.338     2.668067E-5
         2919.552     2.642450E-5
         2922.773     2.616826E-5
         2925.993     2.591260E-5
         2929.217     2.565730E-5
         2932.448     2.540173E-5
         2935.679     2.514665E-5
         2938.916     2.489185E-5
         2942.155     2.465748E-5
         2945.399     2.443352E-5
         2948.646     2.420989E-5
         2951.895     2.398630E-5
         2955.151     2.376254E-5
         2958.407     2.353936E-5
         2961.668     2.330115E-5
         2964.933     2.304877E-5
           2968.2     2.279694E-5
         2971.474     2.255863E-5
         2974.748     2.233718E-5
         2978.027     2.211600E-5
          2981.31     2.188914E-5
         2984.595     2.165365E-5
         2987.887     2.141838E-5
         2991.179     2.119441E-5
         2994.477     2.098976E-5
         2997.778     2.078549E-5
         3001.083     2.057664E-5
         3004.391     2.035807E-5
         3007.702     2.014004E-5
         3011.019     1.994491E-5
         3014.337     1.980148E-5
         3017.658     1.965827E-5
         3020.987     1.949320E-5
         3024.317     1.927654E-5
         3027.651     1.906031E-5
         3030.987     1.884456E-5
         3034.328     1.862903E-5
         3037.673     1.841395E-5
         3041.022     1.821722E-5
         3044.375     1.806157E-5
         3047.731     1.790623E-5
         3051.089     1.774170E-5
         3054.454     1.755748E-5
          3057.82     1.737380E-5
         3061.191     1.720074E-5
         3064.565     1.704683E-5
         3067.944     1.689322E-5
         3071.326     1.673992E-5
          3074.71     1.658701E-5
           3078.1     1.643433E-5
         3081.495     1.626267E-5
          3084.89     1.606719E-5
         3088.292     1.587199E-5
         3091.696     1.569898E-5
         3095.102     1.554805E-5
         3098.516     1.539729E-5
          3101.93     1.527440E-5
         3105.351     1.517213E-5
         3108.773     1.506940E-5
           3112.2     1.499404E-5
         3115.631     1.493390E-5
         3119.064     1.487342E-5
         3122.504     1.478051E-5
         3125.945     1.467518E-5
         3129.391     1.456922E-5
         3132.841     1.447475E-5
         3136.294     1.438235E-5
         3139.752     1.428943E-5
         3143.211     1.421005E-5
         3146.678     1.413122E-5
         3150.145     1.405203E-5
         3153.618     1.397219E-5
         3157.095     1.389192E-5
         3160.573     1.380875E-5
         3164.059     1.371235E-5
         3167.546     1.361553E-5
         3171.039     1.352714E-5
         3174.533     1.345974E-5
         3178.031     1.339196E-5
         3181.536     1.331704E-5
         3185.044     1.323316E-5
         3188.555     1.314881E-5
         3192.068     1.308225E-5
         3195.587     1.302805E-5
          3199.11     1.297352E-5
         3202.637     1.289523E-5
         3206.167     1.280858E-5
           3209.7     1.272150E-5
         3213.239     1.267746E-5
         3216.781     1.263720E-5
         3220.327     1.259080E-5
         3223.877     1.248608E-5
         3227.431     1.238080E-5
         3230.989     1.229281E-5
         3234.549     1.225085E-5
         3238.115     1.220860E-5
         3241.685     1.215089E-5
         3245.259     1.207578E-5
         3248.836     1.200026E-5
         3252.418     1.192422E-5
         3256.003     1.184773E-5
         3259.591     1.177086E-5
         3263.186     1.172271E-5
         3266.781     1.167808E-5
         3270.383     1.163141E-5
         3273.988     1.156976E-5
         3277.596     1.150778E-5
         3281.209     1.144537E-5
         3284.826     1.138254E-5
         3288.449     1.131932E-5
         3292.073     1.125589E-5
           3295.7     1.119216E-5
         3299.335     1.112800E-5
          3302.97     1.106356E-5
         3306.614     1.099869E-5
         3310.257     1.093593E-5
         3313.906     1.090472E-5
         3317.559     1.087331E-5
         3321.215     1.082450E-5
         3324.878     1.074066E-5
         3328.542     1.065646E-5
         3332.211     1.061382E-5
         3335.885     1.059876E-5
          3339.56     1.058358E-5
         3343.244     1.052183E-5
         3346.927     1.045347E-5
         3350.619     1.039059E-5
         3354.311     1.035695E-5
         3358.007     1.032309E-5
          3361.71     1.027251E-5
         3365.415     1.020244E-5
         3369.126     1.013190E-5
         3372.839     1.006115E-5
         3376.557     9.989993E-6
         3380.279     9.919799E-6
         3384.004     9.866075E-6
         3387.736     9.811977E-6
         3391.469     9.786428E-6
         3395.208     9.805235E-6
         3398.953     9.824090E-6
         3402.698     9.776602E-6
         3406.449     9.702957E-6
         3410.204     9.630907E-6
         3413.964     9.593679E-6
         3417.727     9.556217E-6
         3421.493     9.511172E-6
         3425.265     9.454588E-6
         3429.043     9.397640E-6
         3432.821     9.354620E-6
         3436.606     9.316147E-6
         3440.394     9.277430E-6
         3444.185     9.238532E-6
         3447.984     9.199341E-6
         3451.783     9.151007E-6
         3455.588     9.092221E-6
         3459.398     9.033081E-6
         3463.211     8.989932E-6
         3467.029     8.949580E-6
          3470.85     8.909025E-6
         3474.678     8.868295E-6
         3478.506     8.827345E-6
         3482.339     8.786225E-6
          3486.18     8.744854E-6
         3490.023     8.703362E-6
         3493.871     8.681384E-6
          3497.72     8.659254E-6
         3501.576     8.620669E-6
         3505.437     8.558228E-6
         3509.301     8.495403E-6
          3513.17     8.448848E-6
         3517.041     8.405702E-6
         3520.918     8.367066E-6
         3524.799     8.343754E-6
         3528.685     8.320263E-6
         3532.575     8.283196E-6
         3536.468     8.239034E-6
         3540.368     8.196479E-6
         3544.269     8.172365E-6
         3548.176     8.148057E-6
         3552.088     8.112524E-6
         3556.004     8.067076E-6
         3559.924     8.021329E-6
         3563.846     7.975442E-6
         3567.777     7.929211E-6
         3571.708     7.882734E-6
         3575.644     7.835974E-6
         3579.588     7.788865E-6
         3583.534     7.760728E-6
         3587.484     7.734645E-6
         3591.439     7.708375E-6
         3595.396     7.681941E-6
          3599.36     7.655300E-6
         3603.328     7.628560E-6
         3607.301     7.601641E-6
         3611.277     7.574505E-6
         3615.256     7.547137E-6
         3619.242     7.519556E-6
         3623.234     7.491928E-6
         3627.226     7.464165E-6
         3631.223     7.429377E-6
         3635.228     7.378776E-6
         3639.237     7.327847E-6
         3643.247     7.294821E-6
         3647.261     7.265849E-6
         3651.284     7.236673E-6
         3655.307     7.207394E-6
         3659.335     7.177903E-6
         3663.371     7.148177E-6
         3667.408     7.118269E-6
         3671.453     7.088123E-6
         3675.498     7.057803E-6
         3679.552     7.027236E-6
         3683.606     6.996486E-6
         3687.665     6.965518E-6
         3691.732     6.934305E-6
           3695.8     6.902910E-6
         3699.876     6.871259E-6
         3703.953     6.862300E-6
         3708.039     6.853948E-6
         3712.124     6.833172E-6
         3716.215     6.800798E-6
         3720.313     6.768164E-6
         3724.413     6.735340E-6
         3728.521     6.702252E-6
         3732.629     6.668968E-6
         3736.746     6.635419E-6
         3740.863     6.606766E-6
         3744.985     6.597186E-6
         3749.116     6.587497E-6
         3753.247     6.558424E-6
         3757.386     6.523834E-6
         3761.526     6.498122E-6
         3765.675     6.487815E-6
         3769.824     6.477417E-6
         3773.978     6.443083E-6
         3778.141     6.407420E-6
         3782.304     6.371502E-6
         3786.473     6.335284E-6
         3790.648     6.302732E-6
         3794.824     6.291351E-6
          3799.01     6.279849E-6
         3803.196     6.248806E-6
         3807.389     6.211475E-6
         3811.586     6.183588E-6
          3815.79     6.171510E-6
         3819.994     6.159330E-6
         3824.203     6.146956E-6
         3828.419     6.134464E-6
          3832.64     6.105493E-6
         3836.865     6.066481E-6
         3841.095     6.034030E-6
         3845.331     6.020929E-6
         3849.568     6.007725E-6
          3853.81     5.994332E-6
         3858.058     5.980809E-6
         3862.312     5.952567E-6
         3866.572     5.911802E-6
         3870.832     5.876074E-6
         3875.099     5.861849E-6
         3879.369     5.847511E-6
         3883.646     5.832977E-6
         3887.927     5.818310E-6
         3892.213     5.803516E-6
         3896.504     5.788591E-6
           3900.8     5.768395E-6
           3905.1     5.725462E-6
         3909.403     5.682278E-6
         3913.712     5.662711E-6
         3918.027     5.646863E-6
         3922.346     5.630842E-6
          3926.67     5.614655E-6
         3930.999     5.598340E-6
         3935.333     5.581886E-6
         3939.669     5.565318E-6
         3944.012     5.548462E-6
          3948.36     5.531468E-6
         3952.712     5.496471E-6
          3957.07     5.450410E-6
         3961.432     5.422955E-6
         3965.799     5.434091E-6
         3970.169     5.442998E-6
         3974.546     5.395909E-6
         3978.927     5.348539E-6
         3983.314     5.345095E-6
         3987.705     5.355955E-6
         3992.101     5.338567E-6
           3996.5     5.290110E-6
         4000.906     5.251171E-6
         4005.316     5.250106E-6
         4009.732     5.249035E-6
         4014.152     5.219931E-6
         4018.577     5.188990E-6
         4023.008     5.157956E-6
          4027.44     5.126881E-6
          4031.88     5.095727E-6
         4036.325     5.064495E-6
         4040.775     5.033224E-6
         4045.229     5.001853E-6
         4049.689     4.970461E-6
         4054.153     4.938961E-6
          4058.62     4.907450E-6
         4063.094     4.875841E-6
         4067.574     4.844188E-6
         4072.058     4.812473E-6
         4076.547     4.780690E-6
         4081.041     4.748872E-6
         4085.538     4.716986E-6
         4090.042     4.685068E-6
         4094.548     4.653134E-6
         4099.064     4.621148E-6
         4103.583     4.613003E-6
         4108.107     4.611079E-6
         4112.636     4.591534E-6
         4117.165     4.559348E-6
         4121.706     4.527049E-6
          4126.25     4.494664E-6
         4130.799     4.462264E-6
         4135.353     4.429839E-6
         4139.911     4.397405E-6
         4144.473     4.394742E-6
          4149.04     4.392667E-6
         4153.616     4.366418E-6
         4158.195     4.333756E-6
         4162.779     4.301080E-6
         4167.366     4.268406E-6
         4171.962     4.248686E-6
         4176.559     4.246416E-6
         4181.163     4.236422E-6
         4185.772     4.203583E-6
         4190.385     4.170747E-6
         4195.006     4.137812E-6
         4199.629     4.104899E-6
         4204.261     4.078214E-6
         4208.894     4.052007E-6
         4213.531     4.049136E-6
         4218.178     4.053613E-6
         4222.826     4.039248E-6
         4227.484     4.012626E-6
         4232.142     3.985936E-6
          4236.81     3.959117E-6
         4241.478     3.942085E-6
         4246.151     3.946307E-6
         4250.835     3.944947E-6
         4255.519     3.917773E-6
         4260.212     3.890472E-6
         4264.907     3.863037E-6
         4269.606     3.835508E-6
         4274.315     3.836899E-6
         4279.025     3.840941E-6
         4283.744     3.819683E-6
         4288.464     3.791772E-6
         4293.194     3.785323E-6
         4297.925     3.789242E-6
         4302.661     3.775112E-6
         4307.406     3.746792E-6
         4312.152     3.718400E-6
         4316.909     3.689878E-6
         4321.665     3.672614E-6
         4326.432     3.676357E-6
         4331.199     3.671931E-6
         4335.971     3.643108E-6
         4340.753     3.619296E-6
         4345.537     3.622921E-6
          4350.33     3.624295E-6
         4355.123     3.595038E-6
         4359.926     3.565658E-6
          4364.73     3.568716E-6
          4369.54     3.572283E-6
         4374.359     3.545832E-6
         4379.179     3.516149E-6
         4384.009     3.513957E-6
          4388.84     3.517417E-6
          4393.68     3.495432E-6
         4398.521     3.465362E-6
         4403.368     3.458525E-6
         4408.225     3.461928E-6
         4413.082     3.443934E-6
          4417.95     3.413500E-6
         4422.817     3.402564E-6
         4427.696     3.405859E-6
         4432.574     3.391215E-6
         4437.458     3.360427E-6
         4442.353     3.345934E-6
         4447.248     3.349164E-6
         4452.153     3.337342E-6
         4457.059     3.306218E-6
          4461.97     3.288777E-6
         4466.891     3.291904E-6
         4471.813     3.282324E-6
         4476.745     3.250830E-6
         4481.678     3.231055E-6
         4486.618     3.234125E-6
         4491.564     3.226187E-6
         4496.514     3.194385E-6
         4501.473     3.176590E-6
         4506.433     3.192234E-6
         4511.401     3.207894E-6
         4516.375     3.223542E-6
         4521.355     3.229474E-6
         4526.337     3.209118E-6
         4531.325     3.198012E-6
          4536.32     3.213393E-6
         4541.321     3.219099E-6
         4546.328     3.197560E-6
         4551.339     3.185585E-6
         4556.357     3.200742E-6
          4561.38     3.215907E-6
         4566.406     3.231049E-6
          4571.44     3.235350E-6
         4576.479     3.212263E-6
         4581.527     3.200425E-6
         4586.575     3.215293E-6
         4591.632     3.217638E-6
         4596.691     3.193399E-6
         4601.758     3.182411E-6
         4606.832     3.197009E-6
          4611.91     3.211627E-6
         4616.994     3.226264E-6
         4622.084     3.224427E-6
          4627.18     3.198518E-6
         4632.278     3.190425E-6
         4637.385     3.204781E-6
         4642.497     3.219156E-6
         4647.615     3.233549E-6
         4652.738     3.225726E-6
         4657.868     3.198221E-6
         4663.002     3.194889E-6
         4668.141     3.208940E-6
         4673.287     3.223048E-6
         4678.438     3.237192E-6
         4683.596     3.221374E-6
         4688.759     3.192194E-6
         4693.928     3.195602E-6
           4699.1     3.209399E-6
         4704.281     3.223263E-6
         4709.467     3.237153E-6
         4714.658     3.211164E-6
         4719.856     3.180214E-6
         4725.059     3.192552E-6
         4730.268     3.206145E-6
          4735.48     3.219702E-6
         4740.701     3.227170E-6
         4745.927     3.194932E-6
         4751.159     3.172474E-6
         4756.396     3.185739E-6
          4761.64     3.199036E-6
         4766.889     3.212387E-6
         4772.142     3.206559E-6
         4777.402     3.172532E-6
         4782.669     3.162167E-6
         4787.941     3.175165E-6
          4793.22     3.188212E-6
         4798.504     3.201294E-6
         4803.791     3.214387E-6
         4809.087     3.227504E-6
         4814.389     3.199963E-6
         4819.696     3.163562E-6
         4825.009     3.173525E-6
         4830.328     3.186334E-6
         4835.653     3.199160E-6
         4840.981     3.211996E-6
         4846.318     3.224858E-6
         4851.661     3.221905E-6
         4857.009     3.183547E-6
         4862.364     3.167456E-6
         4867.724     3.180006E-6
          4873.09     3.192570E-6
         4878.457     3.205137E-6
         4883.838     3.217741E-6
         4889.222     3.230355E-6
         4894.612     3.197664E-6
         4900.008     3.156977E-6
         4905.409     3.169307E-6
         4910.814     3.181641E-6
         4916.228     3.193953E-6
         4921.648     3.206282E-6
         4927.074     3.218626E-6
         4932.505     3.205690E-6
          4937.94     3.162879E-6
         4943.386     3.154044E-6
         4948.833     3.166113E-6
         4954.289     3.178203E-6
          4959.75     3.190308E-6
         4965.216     3.202373E-6
         4970.692     3.207296E-6
         4976.169     3.162410E-6
         4981.658     3.134320E-6
         4987.146     3.146107E-6
         4992.642     3.157909E-6
         4998.148     3.169740E-6
         5003.656     3.183177E-6
         5009.174     3.197460E-6
         5014.694     3.211750E-6
         5020.219     3.226061E-6
         5025.756     3.240458E-6
         5031.294     3.240808E-6
         5036.843     3.194656E-6
         5042.394     3.174187E-6
         5047.955     3.188180E-6
         5053.517     3.202145E-6
         5059.085     3.216107E-6
         5064.665     3.230149E-6
         5070.246     3.241459E-6
         5075.838     3.192704E-6
         5081.431     3.159535E-6
         5087.036     3.173122E-6
         5092.641     3.186739E-6
         5098.252     3.200404E-6
         5103.875     3.214100E-6
         5109.499     3.227803E-6
         5115.134     3.241538E-6
         5120.771     3.246321E-6
         5126.418     3.194114E-6
         5132.067     3.165565E-6
         5137.722     3.178817E-6
         5143.389     3.192131E-6
         5149.056     3.205472E-6
         5154.735     3.218846E-6
         5160.415     3.232224E-6
         5166.107     3.245633E-6
         5171.799     3.259047E-6
         5177.498     3.272481E-6
         5183.208     3.246873E-6
         5188.919     3.190336E-6
         5194.643     3.190121E-6
         5200.366     3.203122E-6
         5206.102     3.216107E-6
         5211.838     3.229112E-6
         5217.581     3.242170E-6
         5223.336     3.255229E-6
         5229.091     3.268271E-6
         5234.859     3.281342E-6
         5240.627     3.286473E-6
         5246.407     3.226013E-6
         5252.188     3.192935E-6
         5257.975     3.205614E-6
         5263.774     3.218249E-6
         5269.574     3.230848E-6
         5275.383     3.243522E-6
         5281.199     3.256220E-6
         5287.018     3.268928E-6
          5292.85     3.281638E-6
         5298.682     3.294321E-6
         5304.523     3.247198E-6
         5310.371     3.186965E-6
         5316.228     3.199258E-6
         5322.085     3.211515E-6
          5327.95     3.223713E-6
         5333.826     3.235977E-6
         5339.703     3.248264E-6
          5345.59     3.260574E-6
         5351.483     3.272886E-6
         5357.385     3.285174E-6
         5363.289     3.297467E-6
         5369.198     3.309776E-6
         5375.117     3.251223E-6
         5381.042     3.195420E-6
         5386.978     3.207272E-6
         5392.914     3.219098E-6
         5398.858     3.230913E-6
         5404.807     3.242738E-6
         5410.766     3.254585E-6
          5416.73     3.266445E-6
         5422.702     3.278294E-6
          5428.68     3.290124E-6
         5434.665     3.301969E-6
         5440.656     3.313827E-6
         5446.651     3.325692E-6
         5452.655     3.337550E-6
         5458.666     3.349386E-6
         5464.684     3.292793E-6
         5470.708     3.226444E-6
         5476.739     3.237744E-6
         5482.777     3.249059E-6
         5488.818     3.260381E-6
         5494.869     3.271722E-6
         5500.926     3.282952E-6
         5506.991     3.293499E-6
         5513.062     3.304054E-6
         5519.139     3.314612E-6
         5525.221     3.325173E-6
         5531.312     3.335732E-6
          5537.41     3.346248E-6
         5543.514     3.303115E-6
         5549.625     3.219884E-6
         5555.743     3.224193E-6
         5561.868     3.234232E-6
         5567.996     3.244229E-6
         5574.134     3.254237E-6
         5580.279     3.264247E-6
         5586.431     3.274203E-6
          5592.59     3.284163E-6
         5598.755     3.294127E-6
         5604.927     3.300710E-6
         5611.103     3.306436E-6
         5617.289     3.312167E-6
         5623.481     3.317867E-6
         5629.681     3.323543E-6
         5635.887     3.235889E-6
           5642.1     3.176083E-6
         5648.316     3.181486E-6
         5654.543     3.186892E-6
         5660.777     3.192299E-6
         5667.018     3.197707E-6
         5673.265     3.203082E-6
         5679.519     3.208430E-6
          5685.78     3.213780E-6
         5692.045     3.219125E-6
          5698.32     3.224473E-6
         5704.602     3.229823E-6
         5710.891     3.235174E-6
         5717.187     3.240525E-6
         5723.489     3.245873E-6
         5729.799     3.251222E-6
         5736.112     3.256569E-6
         5742.436     3.222171E-6
         5748.766     3.123981E-6
         5755.104     3.108890E-6
         5761.448     3.113971E-6
           5767.8     3.119053E-6
         5774.155     3.124091E-6
         5780.521     3.129115E-6
         5786.893     3.134192E-6
         5793.272     3.139239E-6
         5799.659     3.144255E-6
         5806.053     3.149330E-6
         5812.453     3.154382E-6
         5818.858     3.159391E-6
         5825.272     3.164454E-6
         5831.694     3.169509E-6
         5838.123     3.174519E-6
         5844.559     3.179573E-6
         5851.002     3.184634E-6
         5857.453     3.189635E-6
         5863.907     3.194672E-6
         5870.368     3.193543E-6
         5876.843     3.089378E-6
         5883.321     3.040916E-6
         5889.807     3.045708E-6
           5896.3     3.050498E-6
           5902.8     3.055287E-6
         5909.304     3.060070E-6
         5915.819     3.064907E-6
          5922.34     3.069727E-6
         5928.869     3.074505E-6
         5935.405     3.079330E-6
         5941.945     3.084161E-6
         5948.492     3.088990E-6
         5955.053     3.093820E-6
         5961.618     3.098661E-6
          5968.19     3.103546E-6
         5974.767     3.108380E-6
         5981.356     3.113213E-6
         5987.947     3.118086E-6
         5994.548     3.122958E-6
         6001.157     3.127096E-6
         6007.769     3.127789E-6
         6014.396     3.128517E-6
         6021.022     3.129263E-6
         6027.663     3.130006E-6
         6034.308     3.130742E-6
         6040.954     3.114883E-6
         6047.617     2.999661E-6
          6054.28     2.958908E-6
         6060.958     2.959639E-6
         6067.636     2.960311E-6
         6074.329     2.961021E-6
         6081.021     2.961748E-6
         6087.722     2.962469E-6
         6094.437     2.963187E-6
         6101.152     2.963903E-6
         6107.878     2.964613E-6
         6114.611     2.965319E-6
         6121.355     2.966023E-6
           6128.1     2.966724E-6
         6134.853     2.967419E-6
         6141.616     2.968127E-6
         6148.386     2.968879E-6
         6155.167     2.969580E-6
          6161.95     2.970263E-6
         6168.746     2.970945E-6
          6175.54     2.971622E-6
         6182.348     2.972297E-6
         6189.163     2.972967E-6
         6195.986     2.973635E-6
          6202.82     2.974301E-6
         6209.655     2.974964E-6
         6216.497     2.975565E-6
          6223.35     2.976191E-6
         6230.211     2.976846E-6
         6237.083     2.977433E-6
         6243.955     2.978056E-6
         6250.838     2.978697E-6
         6257.729     2.979280E-6
         6264.624     2.979817E-6
          6271.53     2.980345E-6
         6278.444     2.980918E-6
         6285.366     2.887339E-6
         6292.294     2.806543E-6
         6299.231     2.807017E-6
         6306.176     2.807488E-6
         6313.124     2.807932E-6
         6320.084     2.808342E-6
         6327.051     2.808749E-6
         6334.026     2.809152E-6
         6341.009     2.809545E-6
         6347.999     2.809883E-6
         6354.994     2.810221E-6
            6362.     2.810540E-6
         6369.013     2.810813E-6
         6376.034     2.811085E-6
         6383.063     2.811355E-6
           6390.1     2.811621E-6
         6397.145     2.811824E-6
         6404.193     2.811990E-6
         6411.253     2.812129E-6
         6418.321     2.812268E-6
         6425.397     2.812357E-6
          6432.48     2.812429E-6
         6439.571     2.812497E-6
          6446.67     2.812507E-6
         6453.774     2.812512E-6
         6460.889     2.812501E-6
         6468.011     2.812380E-6
         6475.142     2.812256E-6
          6482.28     2.812129E-6
         6489.426     2.811998E-6
         6496.576     2.811756E-6
         6503.738     2.808907E-6
         6510.908     2.803670E-6
         6518.085     2.798379E-6
         6525.271     2.793038E-6
         6532.465     2.787658E-6
         6539.666     2.782236E-6
         6546.872     2.776817E-6
         6554.089     2.771360E-6
         6561.314     2.765874E-6
         6568.548     2.760388E-6
         6575.789     2.754804E-6
         6583.038     2.749218E-6
         6590.295     2.743662E-6
         6597.557     2.738055E-6
          6604.83     2.732402E-6
         6612.111     2.726709E-6
           6619.4     2.720971E-6
         6626.698     2.715291E-6
         6634.003     2.709549E-6
         6641.316     2.703762E-6
         6648.634     2.698027E-6
         6655.964     2.692192E-6
         6663.301     2.686362E-6
         6670.647     2.680559E-6
         6678.001     2.674702E-6
         6685.363     2.668845E-6
         6692.729     2.662969E-6
         6700.107     2.657051E-6
         6707.494     2.651136E-6
         6714.888     2.645222E-6
         6722.291     2.639307E-6
         6729.701     2.633395E-6
          6737.12     2.627425E-6
         6744.543     2.621458E-6
         6751.979     2.615488E-6
         6759.422     2.609520E-6
         6766.874     2.603498E-6
         6774.333     2.597507E-6
         6781.802     2.591527E-6
         6789.278     2.585502E-6
         6796.759     2.579485E-6
         6804.251     2.573467E-6
         6811.752     2.567449E-6
         6819.262     2.561432E-6
          6826.78     2.555420E-6
         6834.306     2.549409E-6
         6841.836     2.543401E-6
         6849.378     2.537391E-6
         6856.929     2.531384E-6
         6864.488     2.525344E-6
         6872.056     2.519299E-6
         6879.632     2.513301E-6
         6887.216     2.507306E-6
         6894.805     2.501313E-6
         6902.405     2.495301E-6
         6910.015     2.489251E-6
         6917.632     2.483263E-6
         6925.258     2.477278E-6
         6932.893     2.471317E-6
         6940.536     2.465390E-6
         6948.183     2.459416E-6
         6955.839     2.453442E-6
         6963.511     2.447493E-6
         6971.188     2.459708E-6
         6978.873     2.570747E-6
         6986.566     2.581629E-6
         6994.261     2.575364E-6
         7001.975     2.568288E-6
         7009.694     2.558891E-6
         7017.422     2.549455E-6
         7025.158     2.540070E-6
         7032.902     2.530743E-6
         7040.652     2.521469E-6
          7048.41     2.512157E-6
         7056.184     2.502900E-6
         7063.962     2.493674E-6
          7071.75     2.484462E-6
         7079.542     2.475269E-6
          7087.35     2.466086E-6
          7095.16     2.456964E-6
         7102.981     2.447872E-6
         7110.812     2.438795E-6
         7118.647     2.429736E-6
         7126.499     2.420687E-6
         7134.351     2.411692E-6
          7142.22     2.434084E-6
         7150.089     2.533262E-6
         7157.968     2.413298E-6
         7165.863     2.375871E-6
         7173.758     2.419332E-6
         7181.671     2.496873E-6
         7189.584     2.487485E-6
         7197.514     2.478163E-6
         7205.444     2.468865E-6
         7213.384     2.459583E-6
          7221.34     2.450319E-6
         7229.297     2.441130E-6
         7237.271     2.431890E-6
         7245.245     2.422710E-6
         7253.236     2.413555E-6
         7261.228     2.404421E-6
         7269.229     2.395304E-6
         7277.243     2.482271E-6
         7285.265     2.509253E-6
           7293.3     2.499695E-6
         7301.336     2.490198E-6
         7309.381     2.480716E-6
         7317.439     2.471307E-6
         7325.506     2.461873E-6
         7333.586     2.452456E-6
         7341.667     2.443100E-6
         7349.764     2.433749E-6
         7357.863     2.424423E-6
          7365.97     2.491041E-6
          7374.09     2.532514E-6
         7382.219     2.522759E-6
         7390.362     2.513062E-6
         7398.505     2.503393E-6
         7406.661     2.493785E-6
         7414.826     2.484169E-6
         7422.996     2.474570E-6
         7431.184     2.465026E-6
         7439.372     2.455562E-6
         7447.573     2.538669E-6
         7455.783     2.558427E-6
         7464.002     2.548535E-6
         7472.231     2.538657E-6
         7480.464     2.528803E-6
          7488.71     2.518963E-6
         7496.966     2.509194E-6
         7505.231     2.561737E-6
         7513.505     2.608348E-6
         7521.788     2.598211E-6
         7530.076     2.588088E-6
         7538.377     2.577975E-6
         7546.688     2.567869E-6
         7555.007     2.615987E-6
         7563.335     2.663498E-6
         7571.673     2.652966E-6
         7580.021     2.642449E-6
         7588.373     2.631952E-6
         7596.738     2.621461E-6
         7605.113     2.669022E-6
         7613.497     2.713577E-6
          7621.89     2.702666E-6
         7630.292     2.691769E-6
         7638.704     2.680888E-6
         7647.121     2.670025E-6
         7655.551     2.720676E-6
         7663.991     2.758675E-6
         7672.439     2.747397E-6
         7680.897     2.736132E-6
         7689.365     2.724881E-6
         7697.838     2.798730E-6
         7706.324     2.810533E-6
         7714.819     2.798881E-6
         7723.324     2.787246E-6
         7731.838     2.795251E-6
         7740.362     2.870327E-6
         7748.895     2.858299E-6
         7757.434     2.846289E-6
         7765.985     2.897124E-6
         7774.546     2.926845E-6
         7783.117     2.914441E-6
         7791.697     2.919649E-6
         7800.287     2.992894E-6
         7808.886     2.980108E-6
          7817.49     2.967346E-6
         7826.108     3.016835E-6
         7834.736     3.043320E-6
         7843.373     3.030179E-6
          7852.02     3.037370E-6
         7860.676     3.104093E-6
         7869.337     3.090590E-6
         7878.013     3.156639E-6
         7886.697     3.162472E-6
         7895.392     3.148601E-6
         7904.096     3.134756E-6
         7912.809     3.148333E-6
         7921.532     3.204242E-6
         7930.261     3.192569E-6
         7939.003     3.262525E-6
         7947.755     3.257553E-6
         7956.517     3.243016E-6
         7965.288     3.278722E-6
         7974.069     3.308559E-6
          7982.86     3.293684E-6
         7991.656     3.123738E-6
         8000.466     2.400724E-6
         8009.286     3.692767E-6
         8018.115     3.251242E-6
         8026.954     2.918715E-6
         8035.803     3.396701E-6
         8044.658     3.623030E-6
         8053.526     3.660535E-6
         8062.404     4.183410E-6
         8071.292     4.355883E-6
          8080.19     3.859233E-6
         8089.098     3.444505E-6
         8098.016     3.799293E-6
         8106.938     3.935924E-6
         8115.875     3.834825E-6
         8124.822     3.533669E-6
         8133.779     3.322838E-6
         8142.746     3.306013E-6
         8151.723     3.162350E-6
         8160.709     3.239978E-6
         8169.701     4.471667E-6
         8178.708     3.913963E-6
         8187.724     4.052565E-6
          8196.75     3.717317E-6
         8205.786     3.786181E-6
         8214.832     4.073955E-6
         8223.884     4.227476E-6
          8232.95     4.200140E-6
         8242.026     3.856822E-6
         8251.112     3.469153E-6
         8260.208     3.527279E-6
         8269.314     4.191093E-6
         8278.431     3.577377E-6
         8287.552     4.053460E-6
         8296.688     4.123302E-6
         8305.835     4.000458E-6
         8314.991     3.975995E-6
         8324.153     3.831455E-6
         8333.334     3.591905E-6
         8342.521     3.761775E-6
         8351.713     4.221056E-6
          8360.92     3.733358E-6
         8370.138     3.661373E-6
         8379.365     3.908234E-6
         8388.603     3.732775E-6
          8397.85     4.019146E-6
         8407.104     4.588198E-6
         8416.371     4.552535E-6
         8425.649     3.944400E-6
         8434.934     3.910880E-6
         8444.236     4.272802E-6
         8453.546     4.079128E-6
         8462.865     3.727996E-6
         8472.189     3.918514E-6
         8481.525     4.063230E-6
          8490.88     3.828211E-6
          8500.24     4.481945E-6
         8509.611     4.338662E-6
         8518.987     3.897859E-6
         8528.384     4.000926E-6
          8537.78     4.579295E-6
         8547.188     4.389870E-6
         8556.615     4.285431E-6
         8566.043     3.895881E-6
         8575.486     3.480557E-6
          8584.94     3.857581E-6
         8594.409     4.245768E-6
         8603.879     3.885415E-6
         8613.359     3.577541E-6
         8622.854     3.728778E-6
          8632.36     4.025413E-6
         8641.882     3.887973E-6
         8651.403     3.459210E-6
         8660.937     4.021365E-6
         8670.484     3.956340E-6
         8680.043     4.171288E-6
         8689.611     4.732264E-6
         8699.191     4.507091E-6
         8708.781     3.827230E-6
         8718.382     3.567336E-6
         8727.988     3.994552E-6
          8737.61     3.504351E-6
         8747.242     4.069283E-6
         8756.886     4.053785E-6
         8766.539     3.597936E-6
         8776.203     3.631398E-6
         8785.879     3.571129E-6
          8795.56     3.749104E-6
         8805.256     3.948030E-6
         8814.963     3.868095E-6
         8824.681     3.683594E-6
         8834.408     3.658698E-6
         8844.147     3.774292E-6
         8853.893     3.684590E-6
         8863.653     3.759281E-6
         8873.425     3.849739E-6
         8883.207     3.578363E-6
            8893.     3.390698E-6
         8902.804     3.633874E-6
         8912.618     3.393503E-6
         8922.438     3.122535E-6
         8932.274     3.507392E-6
         8942.122     3.379200E-6
         8951.979     3.231940E-6
         8961.849     3.024575E-6
         8971.728     2.996209E-6
         8981.618     3.375297E-6
         8991.515     3.438038E-6
         9001.427     3.006888E-6
         9011.351     3.013946E-6
         9021.284     2.668038E-6
         9031.229     2.806331E-6
         9041.186     3.347186E-6
         9051.147     3.414936E-6
         9061.126     2.880033E-6
         9071.115     3.132631E-6
         9081.115     3.334453E-6
         9091.126     3.132368E-6
         9101.148     2.688617E-6
         9111.182     2.566498E-6
         9121.221     2.731079E-6
         9131.276     2.913730E-6
         9141.343     2.734312E-6
          9151.42     2.695445E-6
         9161.509     2.621400E-6
         9171.608     2.731313E-6
         9181.719     2.646888E-6
         9191.836     2.569898E-6
          9201.97     2.719747E-6
         9212.113     2.523248E-6
          9222.27     2.543946E-6
         9232.436     2.041323E-6
         9242.613     2.251348E-6
         9252.798     1.990330E-6
         9262.998     2.078837E-6
          9273.21     2.185665E-6
         9283.433     2.146029E-6
         9293.667     2.135475E-6
         9303.912     2.134626E-6
         9314.169     2.071380E-6
         9324.432     2.116559E-6
         9334.711     2.077608E-6
         9345.002     2.046128E-6
         9355.304     2.140272E-6
         9365.617     2.097421E-6
         9375.941     1.911308E-6
         9386.278     1.918936E-6
          9396.62     1.885870E-6
         9406.979     1.780872E-6
          9417.35     1.711271E-6
         9427.731     1.604914E-6
         9438.124     1.752786E-6
         9448.529     1.692065E-6
          9458.94     1.624248E-6
         9469.368     1.432732E-6
         9479.807     1.478440E-6
         9490.258     1.745020E-6
          9500.72     1.375684E-6
         9511.193     1.400840E-6
         9521.679     1.382616E-6
          9532.17     1.450286E-6
         9542.679     1.309164E-6
         9553.198     1.318943E-6
         9563.729     1.274952E-6
         9574.272     1.268338E-6
         9584.828     1.286400E-6
         9595.395     1.336173E-6
         9605.967     1.193510E-6
         9616.557     1.320955E-6
         9627.158     1.127190E-6
         9637.771     1.046506E-6
         9648.396     1.148532E-6
         9659.032     1.147125E-6
         9669.681     1.263946E-6
         9680.335     1.178411E-6
         9691.007     1.005099E-6
          9701.69     9.925049E-7
         9712.386     9.657126E-7
         9723.093     1.032298E-6
         9733.812     9.022291E-7
         9744.536     8.739697E-7
         9755.279     9.011283E-7
         9766.033     8.759353E-7
           9776.8     8.534775E-7
         9787.577     7.770975E-7
         9798.367     7.390119E-7
         9809.169     8.329627E-7
         9819.978     8.961132E-7
         9830.803     6.098105E-7
         9841.641     6.106525E-7
          9852.49     6.989641E-7
         9863.352     5.890442E-7
         9874.225     5.894469E-7
          9885.11     5.499081E-7
         9896.003     5.650259E-7
         9906.912     5.987237E-7
         9917.828     5.091106E-7
         9928.767     5.144230E-7
         9939.713     4.827322E-7
          9950.67     4.562679E-7
         9961.634     4.632482E-7
          9972.61     4.524862E-7
          9983.61     3.872782E-7
         9994.616     3.554167E-7
         10005.63     3.543070E-7
         10016.66     3.673995E-7
         10027.71     4.020406E-7
         10038.76     3.280777E-7
         10049.82     3.544417E-7
          10060.9     2.911162E-7
         10071.99     3.321236E-7
          10083.1     3.080646E-7
         10094.21     2.983660E-7
         10105.34     3.143033E-7
         10116.47     3.282395E-7
         10127.62     2.776566E-7
         10138.79     3.006568E-7
         10149.96     2.733667E-7
         10161.16     1.964708E-7
         10172.35     2.366621E-7
         10183.56     2.378110E-7
         10194.79     2.597960E-7
         10206.03     2.084003E-7
         10217.29     1.810889E-7
         10228.54     2.127634E-7
         10239.83     1.973875E-7
         10251.11     1.727471E-7
          10262.4     1.705142E-7
         10273.72     1.635496E-7
         10285.04     1.575823E-7
         10296.39     1.467972E-7
         10307.73     1.404947E-7
          10319.1     1.323922E-7
         10330.47     1.199808E-7
         10341.85     1.247419E-7
         10353.26     1.241747E-7
         10364.67     1.173726E-7
          10376.1     1.085609E-7
         10387.53     1.077333E-7
         10398.99     8.589959E-8
         10410.45     7.723630E-8
         10421.92     8.214964E-8
         10433.41     7.134827E-8
         10444.91     5.440249E-8
         10456.43     5.472620E-8
         10467.95     5.284392E-8
          10479.5     4.570935E-8
         10491.04     4.115252E-8
          10502.6     3.076257E-8
         10514.19     3.435414E-8
         10525.77     3.835896E-8
         10537.38     3.448114E-8
         10548.99     3.612564E-8
         10560.63     2.817583E-8
         10572.26     3.615704E-8
         10583.91     3.284113E-8
         10595.59     2.401162E-8
         10607.26     2.555290E-8
         10618.96     3.052485E-8
         10630.66     3.088880E-8
         10642.38     2.458142E-8
         10654.11     2.523068E-8
         10665.85     1.867555E-8
         10677.62     2.369720E-8
         10689.38     2.231032E-8
         10701.17     2.460555E-8
         10712.96     2.171605E-8
         10724.77     2.026178E-8
          10736.6     1.796868E-8
         10748.43     1.789569E-8
         10760.27     1.803592E-8
         10772.14     1.996599E-8
         10784.01     1.467903E-8
          10795.9     1.499049E-8
         10807.81     1.493928E-8
         10819.72     1.167883E-8
         10831.65     1.215853E-8
         10843.57     1.145967E-8
         10855.53     1.130096E-8
         10867.51     1.172115E-8
         10879.48     1.031685E-8
         10891.48     8.742536E-9
         10903.48     8.177162E-9
          10915.5     7.563528E-9
         10927.52     7.490970E-9
         10939.58     7.370879E-9
         10951.64     5.281459E-9
         10963.71     4.431493E-9
         10975.79     4.975003E-9
         10987.88     5.462674E-9
           11000.     4.644579E-9
