#  Table wf4f380wsys.tab  Mon 12:22:45 02-Jun-97

#      WAVELENGTH      THROUGHPUT
#       angstroms                

            1850.     1.190730E-6
         1851.651     1.005746E-6
         1853.301     8.191016E-7
         1854.956     6.302453E-7
         1856.611     4.397796E-7
         1858.267     2.474311E-7
         1859.925     5.307484E-8
         1861.584     9.192394E-8
         1863.246     1.423230E-7
         1864.909     1.932175E-7
         1866.572     2.445722E-7
         1868.237     2.964269E-7
         1869.904     3.488112E-7
         1871.573     3.672878E-7
         1873.242     3.838198E-7
         1874.913     4.005020E-7
         1876.585     4.173365E-7
          1878.26     4.343364E-7
         1879.937     4.513150E-7
         1881.613     4.028684E-7
         1883.292     3.514114E-7
         1884.973     2.994748E-7
         1886.654     2.471174E-7
         1888.338     1.942730E-7
         1890.023     1.418188E-7
         1891.709     1.503731E-7
         1893.396     1.589973E-7
         1895.086     1.676964E-7
         1896.775     1.764546E-7
         1898.469     1.852994E-7
         1900.163     1.945468E-7
         1901.857     2.070196E-7
         1903.555     2.196107E-7
         1905.254     2.323052E-7
         1906.953     2.450943E-7
         1908.655     2.579948E-7
         1910.357     2.633539E-7
         1912.061     2.398489E-7
         1913.768     2.161202E-7
         1915.476     1.921788E-7
         1917.184     1.680396E-7
         1918.894     1.436865E-7
         1920.606     1.240302E-7
          1922.32     1.132001E-7
         1924.035     1.022730E-7
         1925.752     9.125421E-8
          1927.47     8.013163E-8
         1929.189     6.891679E-8
          1930.91     6.379358E-8
         1932.634     6.416321E-8
         1934.358     6.453425E-8
         1936.084     6.490647E-8
         1937.811     6.528013E-8
          1939.54     6.565548E-8
          1941.27     7.682204E-8
         1943.003     9.201911E-8
         1944.737     1.073460E-7
          1946.47     1.227834E-7
         1948.207     1.383700E-7
         1949.947     1.540964E-7
         1951.685     1.341343E-7
         1953.427     1.128395E-7
         1955.171     9.135767E-8
         1956.913     6.971405E-8
          1958.66     4.785504E-8
         1960.408     3.001587E-8
         1962.157     2.592135E-8
         1963.908     2.178800E-8
         1965.658     1.762353E-8
         1967.413     1.341765E-8
         1969.169     9.174869E-9
         1970.925     8.354714E-9
         1972.684     1.064965E-8
         1974.444     1.296268E-8
         1976.205     1.529530E-8
         1977.969     1.765035E-8
         1979.734     2.002234E-8
           1981.5     2.684268E-8
         1983.268     3.451576E-8
         1985.037     4.224947E-8
         1986.809     5.005257E-8
         1988.581     5.791610E-8
         1990.355     6.348036E-8
         1992.131     5.958668E-8
         1993.908     5.565814E-8
         1995.688     5.168970E-8
         1997.467     4.769358E-8
          1999.25     4.365732E-8
         2001.034     4.035395E-8
         2002.818     3.758149E-8
         2004.606     3.477519E-8
         2006.396     3.194156E-8
         2008.184     2.908268E-8
         2009.976     2.619116E-8
         2011.769     2.527515E-8
         2013.565     2.437579E-8
         2015.362     2.346673E-8
         2017.158     2.254913E-8
         2018.958     2.162069E-8
          2020.76     2.265148E-8
         2022.563     2.640059E-8
         2024.368     3.018796E-8
         2026.173     3.400862E-8
         2027.982     3.786792E-8
         2029.791     4.176109E-8
         2031.602     4.421942E-8
         2033.414     4.650532E-8
         2035.228     4.881181E-8
         2037.044     5.114041E-8
         2038.861     5.348839E-8
         2040.681     5.293540E-8
         2042.502     4.746138E-8
         2044.324     4.193689E-8
         2046.147     3.635916E-8
         2047.974     3.072375E-8
           2049.8     2.503758E-8
          2051.63     2.364822E-8
         2053.461     2.278149E-8
         2055.291     2.190699E-8
         2057.125     2.102272E-8
         2058.961     2.012955E-8
         2060.798     2.082398E-8
         2062.637     2.361405E-8
         2064.477     2.642737E-8
         2066.318     2.926551E-8
         2068.164     3.213239E-8
         2070.007     3.500001E-8
         2071.855     3.283911E-8
         2073.704     3.065808E-8
         2075.553     2.845801E-8
         2077.405     2.623762E-8
         2079.259     2.399478E-8
         2081.113     2.334053E-8
         2082.971     2.375564E-8
         2084.829     2.417357E-8
         2086.688     2.459452E-8
          2088.55     2.501885E-8
         2090.414     2.573339E-8
         2092.279     2.746195E-8
         2094.145     2.920426E-8
         2096.014     3.096220E-8
         2097.885     3.273427E-8
         2099.756     3.451958E-8
          2101.63     3.568032E-8
         2103.503     3.675240E-8
         2105.381     3.783372E-8
          2107.26     3.892339E-8
         2109.139     4.002054E-8
         2111.022     4.108268E-8
         2112.906     4.211553E-8
         2114.789     4.315449E-8
         2116.677     4.420232E-8
         2118.564     4.525697E-8
         2120.455     4.565397E-8
         2122.348     4.394470E-8
         2124.241     4.222272E-8
         2126.135     4.048644E-8
         2128.033     3.873510E-8
         2129.932     3.696931E-8
         2131.832     3.614485E-8
         2133.734     3.534892E-8
         2135.637     3.454661E-8
         2137.544     3.373675E-8
          2139.45     3.292881E-8
         2141.359     3.058933E-8
          2143.27     2.760929E-8
         2145.182     2.460760E-8
         2147.096     2.158109E-8
         2149.011     1.853313E-8
         2150.929     1.619604E-8
         2152.848     1.462922E-8
         2154.768     1.305086E-8
         2156.692     1.145889E-8
         2158.615     9.858311E-9
         2160.541     9.315082E-9
         2162.469     1.152032E-8
         2164.397     1.373763E-8
          2166.33     1.597409E-8
         2168.263     1.822444E-8
         2170.196     2.034325E-8
         2172.133     2.120150E-8
          2174.07     2.206430E-8
         2176.011     2.293299E-8
         2177.953     2.380694E-8
         2179.895     2.468550E-8
          2181.84     2.427245E-8
         2183.787     2.378238E-8
         2185.735     2.328946E-8
         2187.686     2.279320E-8
         2189.637     2.229414E-8
          2191.59     2.364756E-8
         2193.546     2.543447E-8
         2195.503     2.723052E-8
         2197.462     2.903507E-8
         2199.423     3.085039E-8
         2201.385     2.952511E-8
         2203.348     2.684907E-8
         2205.315     2.412410E-8
         2207.283     2.135195E-8
         2209.252     1.853411E-8
         2211.222     1.663575E-8
         2213.196     1.530153E-8
          2215.17     1.394573E-8
         2217.147     1.256622E-8
         2219.125     1.116389E-8
         2221.104     1.010100E-8
         2223.086     9.307900E-9
         2225.071     8.501424E-9
         2227.055     7.683515E-9
         2229.042     6.851601E-9
         2231.031     7.711017E-9
         2233.021     1.017819E-8
         2235.015     1.268356E-8
         2237.008     1.522117E-8
         2239.003     1.779455E-8
         2241.002     1.954455E-8
         2242.999     2.045417E-8
         2245.002     2.137666E-8
         2247.005     2.230940E-8
         2249.009     2.325356E-8
         2251.016     2.327296E-8
         2253.024     2.237156E-8
         2255.033     2.145650E-8
         2257.046     2.052703E-8
         2259.061     1.958375E-8
         2261.075     1.885597E-8
         2263.092     1.831869E-8
         2265.112     1.777289E-8
         2267.134     1.721884E-8
         2269.156     1.665692E-8
         2271.181     1.613201E-8
         2273.207     1.563263E-8
         2275.234     1.512603E-8
         2277.266     1.461158E-8
         2279.296     1.409090E-8
          2281.33     1.526111E-8
         2283.366     1.734933E-8
         2285.402     1.945949E-8
         2287.441     2.159674E-8
         2289.483     2.375841E-8
         2291.525     2.479385E-8
          2293.57     2.544841E-8
         2295.615     2.610850E-8
         2297.663     2.678311E-8
         2299.715     2.746670E-8
         2301.765     2.807728E-8
          2303.82     2.868182E-8
         2305.876     2.929211E-8
         2307.932     2.990782E-8
         2309.992     3.052976E-8
         2312.051     3.240075E-8
         2314.116     3.430048E-8
          2316.18     3.621873E-8
         2318.246     3.815737E-8
         2320.315     3.937919E-8
         2322.385     3.647281E-8
         2324.457     3.352924E-8
         2326.531     3.055214E-8
         2328.606     2.753927E-8
         2330.685     2.525051E-8
         2332.764     2.449875E-8
         2334.845     2.373729E-8
         2336.927     2.296627E-8
         2339.012     2.218555E-8
         2341.101     2.051462E-8
         2343.188     1.803330E-8
         2345.279     1.552366E-8
         2347.372     1.298434E-8
         2349.467     1.041700E-8
         2351.562     1.192242E-8
         2353.661     1.485273E-8
         2355.759     1.780960E-8
         2357.862     2.080107E-8
         2359.966     2.382314E-8
         2362.071     2.396051E-8
         2364.179     2.405005E-8
         2366.288     2.413953E-8
         2368.398     2.422899E-8
         2370.512     2.476093E-8
         2372.628     2.668916E-8
         2374.744     2.863457E-8
         2376.863     3.059967E-8
         2378.983     3.258228E-8
         2381.105     3.476123E-8
          2383.23     3.712660E-8
         2385.357     3.951363E-8
         2387.485     4.192132E-8
         2389.615     4.435082E-8
         2391.747     4.588237E-8
         2393.881     4.722173E-8
         2396.017     4.857308E-8
         2398.154     4.993476E-8
         2400.293     5.107521E-8
         2402.435     5.075218E-8
          2404.58     5.042460E-8
         2406.724     5.009268E-8
         2408.872     4.975603E-8
         2411.022     4.851054E-8
         2413.171     4.625279E-8
         2415.326     4.396929E-8
         2417.479     4.166851E-8
         2419.637     3.934282E-8
         2421.796     4.184604E-8
         2423.957     4.535298E-8
          2426.12     4.889134E-8
         2428.284     5.245682E-8
         2430.451     5.469878E-8
         2432.619     5.177656E-8
         2434.789     4.882844E-8
         2436.962     4.585198E-8
         2439.136     4.284944E-8
         2441.312     3.818486E-8
          2443.49     3.239887E-8
          2445.67     2.656058E-8
         2447.853     2.067238E-8
         2450.036     1.488842E-8
         2452.222     1.789105E-8
         2454.409     2.091781E-8
           2456.6     2.397085E-8
         2458.792     2.704788E-8
         2460.985     2.819077E-8
          2463.18     2.693200E-8
         2465.379     2.566167E-8
         2467.579     2.438073E-8
         2469.778     2.309058E-8
         2471.983     2.265199E-8
          2474.19     2.230629E-8
         2476.396     2.195800E-8
         2478.606     2.160605E-8
         2480.817     2.186774E-8
         2483.029     2.318817E-8
         2485.247     2.452022E-8
         2487.462     2.585963E-8
         2489.682     2.721058E-8
         2491.904     2.872399E-8
         2494.125     3.027206E-8
         2496.353     3.183445E-8
         2498.579     3.340637E-8
         2500.808     3.361803E-8
          2503.04     3.140724E-8
         2505.272     2.918023E-8
         2507.509     2.693377E-8
         2509.745     2.467123E-8
         2511.985     2.647551E-8
         2514.225     2.881910E-8
         2516.468     3.118039E-8
         2518.714     3.356046E-8
         2520.962     3.417376E-8
          2523.21     3.239595E-8
         2525.462     3.060271E-8
         2527.715     2.879635E-8
         2529.971     2.697442E-8
         2532.229     2.805761E-8
         2534.486     2.918574E-8
         2536.748     3.032328E-8
          2539.01     3.141706E-8
         2541.277     3.045117E-8
         2543.545     2.788189E-8
         2545.813     2.530348E-8
         2548.084     2.271463E-8
         2550.358     2.068294E-8
         2552.635     2.169404E-8
         2554.911     2.270811E-8
         2557.191     2.372664E-8
         2559.471     2.474766E-8
         2561.755     2.574136E-8
         2564.042     2.672904E-8
         2566.329     2.771972E-8
         2568.619     2.871446E-8
         2570.908     2.896672E-8
         2573.205     2.808273E-8
           2575.5     2.719614E-8
         2577.797     2.630555E-8
         2580.097     2.538699E-8
         2582.399     2.392794E-8
         2584.704     2.246171E-8
          2587.01     2.098959E-8
         2589.318     1.951204E-8
         2591.629     2.028681E-8
          2593.94     2.201215E-8
         2596.254     2.374387E-8
         2598.573     2.548450E-8
         2600.889     2.801823E-8
          2603.21     3.183778E-8
         2605.532     3.566976E-8
         2607.856     3.951692E-8
         2610.185     4.274913E-8
         2612.512     3.862133E-8
         2614.843     3.447157E-8
         2617.177     3.030422E-8
          2619.51     2.612462E-8
         2621.849     2.677475E-8
         2624.188     2.871461E-8
         2626.528     3.066192E-8
         2628.873     3.261808E-8
         2631.217     3.272321E-8
         2633.566     3.110272E-8
         2635.916     2.947521E-8
         2638.267     2.784155E-8
          2640.62     2.648764E-8
         2642.977     2.593087E-8
         2645.334     2.537178E-8
         2647.695     2.480972E-8
         2650.057     2.420279E-8
         2652.422     2.186278E-8
         2654.788     1.951437E-8
         2657.157     1.715444E-8
         2659.526     1.478741E-8
         2661.899     1.457277E-8
         2664.275     1.489888E-8
         2666.652     1.522591E-8
         2669.031     1.555427E-8
         2671.412     1.519119E-8
         2673.796     1.434979E-8
         2676.181     1.350531E-8
          2678.57     1.265665E-8
          2680.96     1.315221E-8
          2683.35     1.565962E-8
         2685.746     1.818155E-8
          2688.14     2.070896E-8
          2690.54     2.368068E-8
         2692.941     2.815359E-8
         2695.343     3.264215E-8
         2697.748     3.715083E-8
         2700.153     4.107162E-8
         2702.563     3.614379E-8
         2704.975     3.118042E-8
         2707.387     2.618396E-8
         2709.804     2.114774E-8
         2712.222     2.250539E-8
         2714.642     2.444063E-8
         2717.063     2.638900E-8
         2719.486     2.835096E-8
         2721.915     3.027204E-8
         2724.343     3.218874E-8
         2726.772     3.411848E-8
         2729.205     3.606130E-8
          2731.64     3.356067E-8
         2734.078     2.887147E-8
         2736.517     2.415133E-8
         2738.958     1.939784E-8
         2741.402     1.666302E-8
         2743.849     1.544266E-8
         2746.296     1.421424E-8
         2748.747     1.297617E-8
         2751.198     1.243361E-8
         2753.653     1.262497E-8
         2756.111     1.281676E-8
         2758.569     1.300889E-8
         2761.031     1.304812E-8
         2763.495     1.287407E-8
         2765.958     1.269980E-8
         2768.427     1.252491E-8
         2770.898     1.295992E-8
         2773.369     1.446576E-8
         2775.844     1.597598E-8
          2778.32     1.748879E-8
         2780.799     2.075555E-8
          2783.28     2.772047E-8
         2785.764     3.470196E-8
         2788.249     4.169451E-8
         2790.736     4.566314E-8
         2793.227     4.239480E-8
          2795.72     3.911912E-8
         2798.213     3.583801E-8
         2800.709     3.452754E-8
         2803.209     3.820676E-8
         2805.709     4.189186E-8
         2808.213     4.558759E-8
         2810.718     4.847296E-8
         2813.226     4.933095E-8
         2815.736     5.019023E-8
         2818.247     5.105132E-8
         2820.764     5.250178E-8
         2823.278     5.529781E-8
         2825.798     5.810322E-8
          2828.32     6.091447E-8
         2830.843     5.900253E-8
         2833.369     4.764273E-8
         2835.898     3.625823E-8
         2838.426     2.486441E-8
         2840.959     2.128303E-8
         2843.495     3.059724E-8
         2846.031     3.992482E-8
         2848.571     4.927837E-8
         2851.112     5.141573E-8
         2853.655     4.425119E-8
         2856.202     3.706822E-8
         2858.751     2.987093E-8
         2861.301     2.832414E-8
         2863.853     3.221948E-8
         2866.407     3.612279E-8
         2868.965     4.003633E-8
         2871.526     3.991545E-8
         2874.087     3.705164E-8
         2876.652     3.418018E-8
         2879.218     3.130513E-8
         2881.788     3.199111E-8
         2884.358     3.424061E-8
         2886.931     3.649456E-8
         2889.507     3.875405E-8
         2892.084     3.946695E-8
         2894.666     3.981439E-8
         2897.248     4.016228E-8
         2899.832     4.051078E-8
         2902.421     4.417578E-8
          2905.01     4.805951E-8
         2907.601     5.193642E-8
         2910.198     5.532837E-8
          2912.79     5.286558E-8
         2915.392     5.040081E-8
         2917.992     4.794338E-8
         2920.594     4.579743E-8
         2923.203     4.469079E-8
         2925.807     4.358860E-8
          2928.42     4.248561E-8
         2931.033     4.394956E-8
         2933.646     4.932447E-8
         2936.266     5.469840E-8
         2938.885     6.005475E-8
         2941.506     5.539342E-8
         2944.131     4.332775E-8
         2946.757     3.129307E-8
         2949.387     1.927499E-8
         2952.018     1.886323E-8
         2954.653     2.196677E-8
          2957.29     2.506388E-8
         2959.926     2.815079E-8
         2962.567     3.889209E-8
          2965.21     4.982621E-8
         2967.856     6.074241E-8
         2970.505     6.927568E-8
         2973.155     6.777820E-8
         2975.808     6.628252E-8
         2978.461     6.479153E-8
         2981.121     6.237556E-8
          2983.78     5.869934E-8
         2986.441     5.503080E-8
         2989.104     5.137033E-8
         2991.772     5.211652E-8
         2994.442     5.508247E-8
         2997.113     5.803977E-8
         2999.788     6.099188E-8
         3002.464     5.016186E-8
         3005.142     3.817400E-8
         3007.826     2.619835E-8
         3010.507     1.779706E-8
         3013.194     2.452978E-8
         3015.883     3.124650E-8
         3018.573     3.794290E-8
         3021.267     4.292568E-8
          3023.96     4.597663E-8
          3026.66     4.902541E-8
          3029.36     5.206283E-8
         3032.062     5.675754E-8
          3034.77     6.196321E-8
         3037.475     6.714613E-8
         3040.186     7.155950E-8
         3042.897     6.562942E-8
         3045.612     5.971326E-8
         3048.332     5.380423E-8
         3051.051     5.186011E-8
         3053.772     5.617698E-8
         3056.497     6.048529E-8
         3059.222     6.477616E-8
         3061.954     6.417286E-8
         3064.685     6.162746E-8
         3067.418     5.908808E-8
         3070.156     5.629949E-8
         3072.896     4.931668E-8
         3075.637     4.235591E-8
          3078.38     3.541419E-8
         3081.126     3.292337E-8
         3083.877     3.681511E-8
         3086.628     4.069133E-8
         3089.381     4.455612E-8
         3092.137     4.719618E-8
         3094.895     4.947715E-8
         3097.659     5.175408E-8
         3100.422     5.515713E-8
         3103.187     6.488845E-8
         3105.955     7.465685E-8
         3108.729     8.447450E-8
         3111.501     8.417371E-8
         3114.277     7.525917E-8
         3117.056     6.630471E-8
         3119.836     5.732205E-8
         3122.621     8.788881E-8
         3125.406     1.210356E-7
         3128.195     1.543263E-7
         3130.985     2.001865E-7
         3133.778     2.691066E-7
         3136.575     3.383308E-7
         3139.373     4.077753E-7
         3142.175     5.610413E-7
         3144.979     7.390291E-7
         3147.784     9.176026E-7
         3150.592     1.169133E-6
         3153.405     1.693697E-6
         3156.218     2.219569E-6
         3159.035     2.747805E-6
         3161.851     3.562034E-6
         3164.674     4.530020E-6
         3167.497     5.500506E-6
         3170.322     6.626918E-6
         3173.152     8.944198E-6
         3175.982     1.126903E-5
         3178.816     1.360405E-5
         3181.652     1.675508E-5
          3184.49     2.049831E-5
         3187.333     2.426091E-5
         3190.175     2.825875E-5
         3193.022     3.577376E-5
          3195.87     4.331329E-5
         3198.722     5.088582E-5
         3201.577     6.022430E-5
         3204.433     7.100363E-5
         3207.291     8.182363E-5
         3210.151     9.309714E-5
         3213.018     1.118438E-4
         3215.884     1.306377E-4
         3218.752     1.495043E-4
         3221.623     1.713144E-4
         3224.499     1.954357E-4
         3227.376     2.196498E-4
         3230.255     2.451404E-4
         3233.136     2.830908E-4
          3236.02     3.211877E-4
         3238.908     3.594541E-4
         3241.799     4.010210E-4
          3244.69     4.446398E-4
         3247.584     4.884308E-4
         3250.485     5.355868E-4
         3253.384     5.985705E-4
         3256.286     6.617970E-4
         3259.192     7.253041E-4
         3262.097     7.915950E-4
          3265.01     8.592854E-4
         3267.922     9.271450E-4
         3270.837     9.849597E-4
         3273.758     0.001017399
         3276.675     0.001049877
         3279.601     0.001082561
         3282.526     0.001115317
         3285.454     0.001148199
         3288.388     0.001181244
         3291.319     0.001238989
         3294.257     0.001329736
         3297.195     0.001418025
         3300.137      0.00150984
         3303.083     0.001604888
         3306.029     0.001700505
         3308.979     0.001803883
         3311.931     0.001906069
         3314.885     0.002006881
         3317.844     0.002117442
         3320.803     0.002231512
         3323.767      0.00234608
         3326.731     0.002464788
           3329.7     0.002588143
          3332.67     0.002706667
         3335.643     0.002837985
         3338.622     0.002975418
         3341.599     0.003107391
          3344.58     0.003249162
         3347.563      0.00340094
         3350.551      0.00354972
         3353.541     0.003699862
         3356.532     0.003853738
         3359.528     0.004013283
         3362.524      0.00418456
         3365.525     0.004354886
         3368.527     0.004539252
         3371.532     0.004729473
         3374.541      0.00491312
         3377.551     0.005101861
         3380.565     0.005304016
         3383.582     0.005516299
         3386.598     0.005723802
         3389.623     0.005940865
         3392.646     0.006154378
         3395.672     0.006348441
         3398.705     0.006522734
         3401.732     0.006837819
          3404.77      0.00707416
         3407.807     0.007321811
         3410.847     0.007566215
         3413.893     0.007812122
         3416.938     0.008068684
         3419.985      0.00832672
         3423.038     0.008575332
         3426.089     0.008833272
         3429.148     0.009089866
         3432.207     0.009339092
         3435.268     0.009589323
         3438.334     0.009839986
         3441.401      0.01008865
         3444.473      0.01034206
         3447.545      0.01059295
         3450.622      0.01084041
         3453.701      0.01107633
         3456.782      0.01130537
         3459.865       0.0115263
         3462.951      0.01174118
         3466.042      0.01195693
         3469.135      0.01217123
         3472.229      0.01238588
         3475.326       0.0125894
         3478.426      0.01278066
         3481.532      0.01296815
         3484.638      0.01315859
         3487.746      0.01335077
         3490.859       0.0135294
         3493.972      0.01370693
         3497.091      0.01388335
          3500.21      0.01405991
         3503.334      0.01422953
          3506.46      0.01439288
         3509.586      0.01455907
          3512.72      0.01472295
         3515.852      0.01488308
         3518.989      0.01504777
          3522.13      0.01522729
         3525.271      0.01540353
         3528.418      0.01557746
         3531.563      0.01574518
         3534.717      0.01591669
          3537.87      0.01609318
         3541.025      0.01627265
         3544.188      0.01646191
         3547.349       0.0166404
         3550.513      0.01682196
         3553.679      0.01701267
         3556.849      0.01720725
         3560.026      0.01740826
         3563.201      0.01761439
         3566.379      0.01781228
         3569.562      0.01802185
         3572.746      0.01823992
         3575.935      0.01846112
         3579.124      0.01869635
         3582.316      0.01891206
         3585.513      0.01912974
         3588.714      0.01935149
         3591.915      0.01958311
         3595.118      0.01981347
         3598.325      0.02003506
         3601.538      0.02026151
         3604.751      0.02049264
         3607.966      0.02072009
         3611.184      0.02095849
         3614.409      0.02120584
         3617.633      0.02142906
         3620.859       0.0216508
         3624.089      0.02187536
         3627.322      0.02209496
         3630.561      0.02231931
         3633.799      0.02252828
          3637.04      0.02274285
         3640.286       0.0229468
         3643.533      0.02313505
         3646.785      0.02332414
         3650.038      0.02351385
         3653.295      0.02370162
         3656.556      0.02386964
         3659.815      0.02404601
         3663.082      0.02422071
         3666.353       0.0243835
         3669.621       0.0245342
         3672.896      0.02468969
         3676.172       0.0248457
         3679.451      0.02500228
         3682.737      0.02514631
         3686.022      0.02527808
         3689.309      0.02540254
           3692.6      0.02552789
         3695.896      0.02564814
         3699.194      0.02578652
         3702.494      0.02591728
         3705.798      0.02603322
         3709.101      0.02616103
         3712.412      0.02628554
         3715.725      0.02641119
         3719.039      0.02652329
         3722.358      0.02664406
         3725.678      0.02675878
         3729.004       0.0268822
          3732.33      0.02700097
         3735.659      0.02712101
         3738.995      0.02724745
          3742.33      0.02738097
         3745.668      0.02751918
         3749.009      0.02764688
         3752.354       0.0277812
         3755.703      0.02792942
         3759.053      0.02806879
         3762.408      0.02820857
         3765.764      0.02835381
         3769.125       0.0284894
         3772.487      0.02864225
         3775.852      0.02879799
         3779.222      0.02895753
         3782.594      0.02911837
         3785.968      0.02927335
         3789.345      0.02943117
         3792.725      0.02959486
         3796.112      0.02977943
         3799.498      0.02994744
         3802.887      0.03011114
         3806.279      0.03028662
         3809.676      0.03045704
         3813.076      0.03062399
         3816.477      0.03078343
         3819.881      0.03096903
          3823.29      0.03114704
           3826.7      0.03132337
         3830.116      0.03150362
         3833.532      0.03167754
         3836.951      0.03184679
         3840.378      0.03201385
         3843.803      0.03217186
         3847.232      0.03234975
         3850.663       0.0325175
         3854.102      0.03268014
          3857.54      0.03285198
          3860.98      0.03304771
         3864.426      0.03321894
         3867.875      0.03337987
         3871.325      0.03353767
         3874.778      0.03369235
         3878.234      0.03384749
         3881.695      0.03399143
         3885.157      0.03414516
         3888.625      0.03429783
         3892.094      0.03444856
         3895.565      0.03458573
         3899.044      0.03472164
         3902.521      0.03486514
         3906.002      0.03501185
         3909.489      0.03513589
         3912.975       0.0352488
         3916.468      0.03538122
         3919.961       0.0355034
         3923.457      0.03560717
         3926.961      0.03572249
         3930.462      0.03582809
         3933.969      0.03595358
         3937.478      0.03604486
         3940.992       0.0361442
          3944.51      0.03623622
         3948.028      0.03631723
          3951.55      0.03641254
         3955.074      0.03651056
         3958.606      0.03659471
         3962.137      0.03668107
         3965.671      0.03674727
          3969.21      0.03680836
          3972.75      0.03687155
         3976.296      0.03694849
         3979.843      0.03701463
         3983.395      0.03707153
          3986.95      0.03712777
         3990.504      0.03717587
         3994.065      0.03721157
          3997.63       0.0372663
         4001.196       0.0372883
         4004.767      0.03726375
         4008.339      0.03724896
         4011.914      0.03721718
         4015.494      0.03718986
         4019.078      0.03715942
         4022.663       0.0371194
         4026.251      0.03706508
         4029.844       0.0370217
         4033.441      0.03698691
         4037.039      0.03695803
         4040.639       0.0369141
         4044.243      0.03689444
         4047.855      0.03686509
         4051.465      0.03684123
         4055.079      0.03680818
         4058.698      0.03677151
         4062.316      0.03672799
         4065.944      0.03669735
          4069.57      0.03666672
           4073.2      0.03664814
         4076.838      0.03662472
         4080.472      0.03659003
         4084.114      0.03654068
         4087.756      0.03650339
         4091.405      0.03647541
         4095.056      0.03645943
         4098.708      0.03642026
         4102.367      0.03637438
         4106.026      0.03634703
         4109.688      0.03631949
         4113.356      0.03627843
         4117.025       0.0362271
         4120.699      0.03618876
         4124.375       0.0361429
         4128.056      0.03608204
         4131.738      0.03604207
         4135.423      0.03598402
         4139.116       0.0359363
         4142.808      0.03589389
         4146.503      0.03584104
         4150.201      0.03579376
         4153.903      0.03573705
         4157.613      0.03566889
         4161.321      0.03560834
         4165.033      0.03552962
         4168.748      0.03544663
         4172.466      0.03536607
         4176.192      0.03529125
         4179.917       0.0351967
         4183.645       0.0350913
         4187.379      0.03497408
         4191.116      0.03485118
         4194.854       0.0347241
         4198.596        0.034575
         4202.343      0.03444418
         4206.094      0.03432063
         4209.845      0.03418687
         4213.603      0.03404824
         4217.358      0.03389763
         4221.123      0.03372531
          4224.89      0.03353785
         4228.658      0.03335059
         4232.432      0.03315011
         4236.208      0.03292686
         4239.988      0.03272443
          4243.77      0.03252117
         4247.555      0.03230017
         4251.348      0.03207444
          4255.14      0.03184703
         4258.936      0.03163006
         4262.734      0.03142704
         4266.537      0.03123939
         4270.347      0.03104934
         4274.155      0.03087932
         4277.968      0.03071366
         4281.786      0.03055857
         4285.605      0.03039723
          4289.43      0.03023371
         4293.256      0.03010848
         4297.085      0.02998949
         4300.922      0.02987885
         4304.759      0.02976727
         4308.598      0.02967355
         4312.441      0.02959505
          4316.29      0.02953687
         4320.142      0.02948343
         4323.996      0.02944059
         4327.854      0.02940879
         4331.715      0.02940348
         4335.581      0.02940857
         4339.448      0.02943118
         4343.318      0.02946054
         4347.195      0.02949576
         4351.072      0.02954301
         4354.956      0.02960067
          4358.84      0.02965839
         4362.728      0.02972443
         4366.624      0.02977881
         4370.519      0.02981832
         4374.417      0.02983224
         4378.318      0.02983805
         4382.229      0.02980706
         4386.137      0.02973613
         4390.049      0.02960965
         4393.967      0.02943078
         4397.889      0.02917712
         4401.812      0.02886099
         4405.738      0.02844797
         4409.667      0.02794961
         4413.603      0.02736652
         4417.542      0.02668758
         4421.482       0.0259113
         4425.426      0.02503479
         4429.373      0.02408694
         4433.329      0.02306953
         4437.283      0.02198884
         4441.241      0.02085885
         4445.205      0.01970709
         4449.169      0.01854726
          4453.14      0.01738031
         4457.112      0.01622716
         4461.088      0.01508883
         4465.069      0.01398905
         4469.052      0.01293187
         4473.041       0.0119337
          4477.03      0.01098758
         4481.028      0.01010072
         4485.022     0.009276128
         4489.025     0.008496629
         4493.032     0.007784451
         4497.039     0.007128215
         4501.053      0.00652988
         4505.067     0.005996088
         4509.086     0.005513698
         4513.107     0.005073035
         4517.136     0.004668164
         4521.167     0.004296379
           4525.2     0.003958541
         4529.238     0.003646486
         4533.281     0.003364124
         4537.324     0.003108101
         4541.371     0.002871139
         4545.422     0.002658267
         4549.479     0.002458886
         4553.539     0.002274805
           4557.6     0.002110152
         4561.668     0.002014407
         4565.734     0.001925298
         4569.809      0.00183525
         4573.887       0.0017444
         4577.967     0.001652767
         4582.053      0.00155164
         4586.142      0.00144102
         4590.233     0.001331366
         4594.327     0.001252012
         4598.425     0.001171965
         4602.529     0.001094684
         4606.637     0.001018927
         4610.746     9.465466E-4
          4614.86     8.915634E-4
         4618.979     8.360913E-4
         4623.097     7.822987E-4
         4627.223     7.286666E-4
          4631.35     6.795991E-4
         4635.483     6.403925E-4
         4639.621     6.008508E-4
         4643.759     5.625991E-4
           4647.9     5.241865E-4
         4652.046     4.906434E-4
         4656.198     4.621619E-4
         4660.354     4.335433E-4
         4664.511     4.058088E-4
         4668.673     3.778304E-4
          4672.84     3.547234E-4
         4677.005     3.338484E-4
          4681.18     3.129543E-4
         4685.355     2.923689E-4
         4689.537     2.715994E-4
         4693.722     2.556229E-4
         4697.909     2.401449E-4
         4702.102     2.248800E-4
         4706.293     2.098584E-4
         4710.493     1.951794E-4
         4714.697     1.840357E-4
         4718.902     1.728079E-4
         4723.114     1.618938E-4
          4727.33     1.510378E-4
         4731.543     1.411807E-4
         4735.766     1.330997E-4
          4739.99     1.249575E-4
         4744.221     1.169985E-4
         4748.455     1.089766E-4
          4752.69     1.022510E-4
         4756.932     9.625055E-5
         4761.172     9.027190E-5
         4765.421     8.440223E-5
         4769.674     7.848626E-5
         4773.929     7.395287E-5
         4778.189     6.949935E-5
         4782.454     6.507273E-5
         4786.719     6.065949E-5
         4790.989     5.647566E-5
         4795.262     5.313914E-5
         4799.542     4.977431E-5
         4803.826     4.649090E-5
          4808.11     4.319700E-5
         4812.401     4.036030E-5
         4816.696     3.788459E-5
         4820.993     3.540926E-5
         4825.292     3.297593E-5
         4829.597     3.052349E-5
         4833.907     2.867143E-5
         4838.221     2.686913E-5
         4842.537     2.507667E-5
         4846.855     2.328650E-5
         4851.179     2.161739E-5
         4855.508     2.029632E-5
         4859.842     1.896516E-5
         4864.177     1.768997E-5
         4868.518     1.640685E-5
         4872.863     1.534341E-5
         4877.209     1.439160E-5
          4881.56     1.344672E-5
         4885.914     1.252043E-5
         4890.277     1.160153E-5
         4894.639     1.090646E-5
         4899.004     1.020615E-5
         4903.376     9.545903E-6
         4907.748     8.894954E-6
          4912.13     8.322788E-6
         4916.512     7.836988E-6
         4920.897     7.352544E-6
         4925.289     6.883695E-6
         4929.685     6.411321E-6
         4934.082     6.064661E-6
         4938.482     5.725425E-6
         4942.887     5.396008E-6
         4947.301     5.070262E-6
         4951.714     4.774995E-6
         4956.131     4.528879E-6
         4960.554     4.282090E-6
         4964.976     4.042575E-6
          4969.41     3.800857E-6
         4973.842     3.607470E-6
         4978.278     3.420366E-6
         4982.724     3.231396E-6
         4987.168     3.041123E-6
         4991.617     2.864565E-6
         4996.069     2.713269E-6
         5000.528     2.560866E-6
         5004.991     2.407925E-6
         5009.455     2.253761E-6
         5013.923     2.121214E-6
         5018.398     1.990666E-6
         5022.874     1.854604E-6
         5027.357     1.714793E-6
         5031.841     1.586171E-6
         5036.329     1.474157E-6
         5040.827     1.363468E-6
         5045.323     1.262657E-6
         5049.823     1.160996E-6
         5054.327     1.076445E-6
         5058.838     9.918781E-7
         5063.353     9.096091E-7
         5067.869     8.277633E-7
          5072.39     7.607133E-7
         5076.919     7.069086E-7
         5081.448     6.518873E-7
          5085.98     5.946240E-7
         5090.516     5.399532E-7
          5095.06     5.087111E-7
         5099.607     4.772130E-7
         5104.155     4.375374E-7
         5108.708     3.967843E-7
         5113.265     3.682044E-7
         5117.828     3.443471E-7
         5122.396     3.208659E-7
         5126.965     2.977310E-7
         5131.538     2.774247E-7
          5136.12     2.629115E-7
         5140.701     2.482639E-7
         5145.287     2.333039E-7
         5149.876     2.182244E-7
         5154.472     2.068375E-7
         5159.072     1.954658E-7
         5163.674     1.836709E-7
         5168.283     1.716879E-7
         5172.895     1.603581E-7
         5177.506     1.493956E-7
         5182.127     1.387972E-7
         5186.749     1.286666E-7
         5191.378     1.201212E-7
         5196.012     1.154671E-7
         5200.646     1.104083E-7
         5205.285     1.030121E-7
         5209.928     9.555814E-8
         5214.577     9.479201E-8
         5219.231     9.412509E-8
         5223.887     9.036344E-8
         5228.549     8.595639E-8
         5233.215     8.355598E-8
          5237.88     8.206319E-8
         5242.555     7.983645E-8
         5247.231     7.699400E-8
         5251.914     7.458691E-8
         5256.601     7.282811E-8
          5261.29     7.128308E-8
         5265.985     7.032615E-8
          5270.68     6.902975E-8
         5275.383     6.574866E-8
         5280.092     6.237675E-8
         5284.801     5.568812E-8
         5289.518     4.894564E-8
         5294.239     5.196471E-8
         5298.958     5.611937E-8
         5303.687     5.521084E-8
         5308.418     5.284972E-8
         5313.155     5.220426E-8
         5317.897     5.242644E-8
         5322.641     5.269949E-8
         5327.391     5.301404E-8
          5332.14     5.499254E-8
         5336.899     5.902542E-8
         5341.662     6.184532E-8
         5346.426     6.236095E-8
         5351.198     6.271742E-8
         5355.974     6.259022E-8
         5360.751     6.214103E-8
         5365.532     5.996505E-8
         5370.318     5.789629E-8
         5375.111     5.755469E-8
         5379.908     5.720974E-8
         5384.707     5.822745E-8
         5389.513     5.927844E-8
         5394.323     6.215937E-8
         5399.131     6.526160E-8
          5403.95     6.292434E-8
          5408.77     5.936563E-8
         5413.597     6.094143E-8
         5418.429     6.429869E-8
         5423.262     6.465815E-8
         5428.099     6.355973E-8
          5432.94     6.411589E-8
         5437.792     6.575602E-8
         5442.643     6.554933E-8
         5447.497     6.378499E-8
         5452.359     6.369761E-8
         5457.225     6.540951E-8
         5462.092     6.822505E-8
         5466.964     7.251565E-8
          5471.84     7.618716E-8
         5476.724     7.881408E-8
         5481.612     8.252271E-8
         5486.501     8.842601E-8
         5491.398     9.552245E-8
         5496.293     1.055477E-7
         5501.198     1.144510E-7
         5506.108     1.196899E-7
         5511.019     1.279364E-7
         5515.938     1.476656E-7
          5520.86     1.670121E-7
         5525.785     1.840917E-7
         5530.713     2.029606E-7
         5535.646     2.319523E-7
         5540.587     2.620779E-7
         5545.532     2.994240E-7
         5550.478     3.375273E-7
         5555.432     3.812235E-7
         5560.387     4.267713E-7
         5565.347     4.918427E-7
         5570.313     5.571191E-7
         5575.282     6.195981E-7
         5580.258     6.835267E-7
         5585.238     7.672868E-7
          5590.22     8.510711E-7
         5595.206     9.267392E-7
         5600.197     1.003452E-6
         5605.198     1.095714E-6
         5610.197     1.186872E-6
         5615.201     1.245897E-6
         5620.213     1.305487E-6
         5625.226     1.372288E-6
         5630.246     1.437142E-6
         5635.268     1.458829E-6
         5640.294     1.479073E-6
         5645.328     1.474966E-6
         5650.367     1.469093E-6
         5655.406     1.440946E-6
         5660.451     1.409041E-6
         5665.502     1.339718E-6
         5670.559     1.268579E-6
         5675.617     1.184718E-6
         5680.679     1.100403E-6
         5685.752     1.014782E-6
         5690.823     9.240870E-7
         5695.899     8.079106E-7
         5700.979     6.986795E-7
         5706.064     6.198927E-7
          5711.16     5.432399E-7
         5716.254     4.749413E-7
         5721.353     4.086277E-7
         5726.456     3.482619E-7
         5731.567     2.956235E-7
         5736.682     2.608925E-7
         5741.799     2.271583E-7
          5746.92     1.953359E-7
         5752.053     1.682616E-7
         5757.183     1.484828E-7
         5762.318     1.315009E-7
         5767.458     1.179495E-7
         5772.602     1.068412E-7
         5777.757     9.812369E-8
         5782.911     9.134406E-8
         5788.068     8.605213E-8
         5793.237     7.999397E-8
         5798.401     7.348354E-8
         5803.577     6.967326E-8
         5808.753     6.707472E-8
         5813.937     6.782410E-8
         5819.126     6.964215E-8
         5824.316     6.786497E-8
         5829.511     6.535080E-8
         5834.711     6.298093E-8
         5839.918     6.061710E-8
          5845.13     6.026868E-8
         5850.344     6.018275E-8
         5855.562     6.338326E-8
         5860.792     6.569975E-8
         5866.016     6.297857E-8
         5871.251     6.156080E-8
         5876.488     6.433842E-8
         5881.732     6.584850E-8
         5886.982     6.476577E-8
         5892.232     6.381208E-8
         5897.491     6.303345E-8
         5902.749     6.314873E-8
         5908.017     6.408472E-8
          5913.29     6.457515E-8
         5918.563     6.479581E-8
         5923.846     6.254112E-8
         5929.133     5.935149E-8
         5934.421     6.288544E-8
         5939.714     6.775438E-8
         5945.012     6.487875E-8
         5950.318     6.192767E-8
         5955.629     6.493576E-8
         5960.941     6.707165E-8
         5966.258     6.511591E-8
         5971.579     6.402048E-8
         5976.909     6.498116E-8
         5982.243     6.613738E-8
         5987.579     6.756217E-8
         5992.923     6.667775E-8
         5998.271     6.386837E-8
         6003.622     6.572707E-8
         6008.976     6.982101E-8
         6014.336     6.923852E-8
         6019.704     6.754749E-8
         6025.076     6.546244E-8
          6030.45     6.354623E-8
         6035.832     6.374206E-8
         6041.219     6.444322E-8
         6046.604     6.687075E-8
         6052.001     6.753603E-8
         6057.399     6.519977E-8
         6062.805     6.645178E-8
         6068.216     7.103998E-8
         6073.628     7.054020E-8
         6079.046     6.753346E-8
         6084.468     6.662928E-8
         6089.898     6.617388E-8
         6095.333     6.650343E-8
          6100.77     6.625113E-8
         6106.215     6.237404E-8
         6111.665     6.134905E-8
         6117.112     6.681988E-8
         6122.572     6.753235E-8
         6128.033     6.288430E-8
         6133.502     6.278727E-8
         6138.976     6.525441E-8
         6144.452     6.848703E-8
         6149.936     7.190184E-8
         6155.417     7.128481E-8
         6160.911     7.029202E-8
          6166.41     6.765604E-8
          6171.91     6.635173E-8
         6177.418     6.755573E-8
         6182.932     6.662172E-8
         6188.443     6.380402E-8
         6193.966     6.512395E-8
         6199.491     6.807239E-8
         6205.024     6.695992E-8
         6210.562     6.543925E-8
         6216.101     6.396849E-8
         6221.649     6.347102E-8
         6227.195     6.528089E-8
         6232.756     6.494545E-8
         6238.315     6.242107E-8
         6243.879     6.173870E-8
         6249.452     6.185795E-8
         6255.029     6.576764E-8
         6260.608     6.927102E-8
         6266.193     6.605554E-8
         6271.782     6.483925E-8
         6277.379     6.790717E-8
         6282.982     7.075934E-8
         6288.586     7.342025E-8
         6294.198     7.124559E-8
         6299.809     6.744081E-8
         6305.435     6.380372E-8
         6311.059     6.143254E-8
         6316.688     6.449233E-8
         6322.326     6.615686E-8
         6327.968     6.582640E-8
         6333.612     6.649178E-8
         6339.262     6.771874E-8
         6344.916     6.913752E-8
         6350.579     7.037130E-8
         6356.247     6.970688E-8
         6361.916     6.979707E-8
         6367.594     7.136915E-8
         6373.277     7.248583E-8
         6378.961     7.326729E-8
         6384.651     7.278690E-8
         6390.346     7.202367E-8
         6396.049     7.125798E-8
         6401.757     6.982147E-8
         6407.467     6.687769E-8
         6413.183     6.643752E-8
         6418.906     6.799439E-8
         6424.631     6.947432E-8
         6430.365     7.062368E-8
         6436.104     6.714629E-8
         6441.845     6.584325E-8
         6447.594     6.913866E-8
         6453.345     7.034696E-8
         6459.101     7.005340E-8
         6464.866     6.780085E-8
         6470.632     6.505323E-8
         6476.407     6.122122E-8
         6482.184     6.057287E-8
         6487.969     6.517011E-8
         6493.756     6.544020E-8
         6499.548     6.336781E-8
         6505.349     6.261363E-8
         6511.154     6.226544E-8
         6516.962     6.309828E-8
         6522.778     6.274016E-8
         6528.596     6.108388E-8
         6534.419     6.126287E-8
         6540.251     6.209105E-8
         6546.088     6.442323E-8
         6551.927     6.494067E-8
         6557.771     6.179005E-8
         6563.624     6.174893E-8
         6569.478     6.361484E-8
         6575.341     6.469017E-8
         6581.206     6.538978E-8
          6587.08     6.494734E-8
         6592.955     6.324770E-8
         6598.839     6.030761E-8
         6604.729     6.008253E-8
         6610.616     6.073628E-8
         6616.516     6.322992E-8
         6622.421     6.472391E-8
         6628.328     6.478562E-8
         6634.244     6.395589E-8
         6640.165     6.284535E-8
         6646.087     6.411943E-8
         6652.015     6.482716E-8
         6657.948     6.444065E-8
         6663.891     6.377663E-8
         6669.838     6.296762E-8
         6675.787     6.494440E-8
         6681.745     6.511187E-8
         6687.701     6.074253E-8
          6693.67     5.933372E-8
         6699.644     5.977738E-8
          6705.62     5.872438E-8
         6711.604     5.785729E-8
         6717.594     5.775264E-8
         6723.586     6.004539E-8
         6729.583     6.393845E-8
         6735.585     6.332354E-8
         6741.597     6.371054E-8
         6747.613     6.778779E-8
         6753.632     7.013406E-8
          6759.66     7.134689E-8
         6765.692     7.627974E-8
         6771.723     8.065000E-8
         6777.767     8.310199E-8
         6783.813     9.077467E-8
         6789.867     1.014906E-7
         6795.927     1.072081E-7
         6801.988     1.145497E-7
         6808.055     1.254640E-7
         6814.127     1.371482E-7
         6820.209     1.494541E-7
         6826.296     1.693368E-7
         6832.385     1.907396E-7
         6838.482     2.145593E-7
         6844.586     2.366314E-7
         6850.687     2.590866E-7
         6856.801     2.896362E-7
         6862.917     3.199144E-7
         6869.042     3.499441E-7
         6875.173     3.902389E-7
         6881.305     4.304610E-7
         6887.446     4.637999E-7
         6893.586     5.095382E-7
         6899.738     5.641230E-7
         6905.896     6.103770E-7
         6912.056     6.555572E-7
         6918.225     6.995450E-7
         6924.399     7.426435E-7
         6930.572     7.856495E-7
         6936.757     8.325034E-7
         6942.944     8.729129E-7
         6949.141     9.063069E-7
         6955.343     9.370790E-7
         6961.546     9.656148E-7
          6967.76     9.889230E-7
         6973.971     1.010835E-6
         6980.195     1.031795E-6
         6986.424     1.047212E-6
         6992.656     1.054836E-6
         6998.897     1.052032E-6
         7005.143     1.046259E-6
         7011.392     1.040562E-6
         7017.645     1.037294E-6
         7023.904     1.023879E-6
         7030.173     1.004391E-6
         7036.448     9.847787E-7
         7042.724     9.608840E-7
         7049.009     9.313757E-7
         7055.292     9.027261E-7
         7061.589     8.757359E-7
         7067.892     8.531130E-7
         7074.196     8.239174E-7
          7080.51     7.914652E-7
         7086.829     7.589561E-7
          7093.15     7.265548E-7
         7099.477     6.942381E-7
         7105.809     6.635747E-7
         7112.151     6.323613E-7
         7118.498     5.997153E-7
         7124.848     5.673650E-7
         7131.207     5.368037E-7
         7137.571     5.132605E-7
         7143.933     4.858245E-7
         7150.309     4.561934E-7
         7156.687     4.305187E-7
         7163.074     4.073030E-7
         7169.467     3.867324E-7
         7175.862     3.677424E-7
         7182.262     3.467282E-7
         7188.668     3.217080E-7
         7195.084     3.020088E-7
         7201.506     2.846857E-7
         7207.929     2.704515E-7
         7214.362     2.576001E-7
         7220.801     2.454301E-7
         7227.237     2.332749E-7
         7233.688     2.205235E-7
         7240.144     2.074024E-7
         7246.601     1.963901E-7
         7253.069     1.866546E-7
         7259.538     1.783318E-7
         7266.017     1.704562E-7
         7272.498     1.609290E-7
         7278.989     1.486950E-7
         7285.481     1.470311E-7
         7291.979     1.437722E-7
         7298.487     1.324669E-7
         7305.001     1.256881E-7
         7311.517     1.194025E-7
         7318.038     1.102127E-7
         7324.569     1.045614E-7
         7331.103     1.006233E-7
         7337.646     9.760733E-8
          7344.19     9.586655E-8
         7350.745     9.474433E-8
         7357.301     9.289310E-8
         7363.867     8.961433E-8
         7370.436     8.533186E-8
         7377.014     8.074881E-8
         7383.593     7.775122E-8
         7390.183     7.605023E-8
         7396.775     7.400895E-8
         7403.372     7.339112E-8
         7409.979     7.412486E-8
         7416.589     6.975688E-8
         7423.208     6.653196E-8
         7429.829     6.453291E-8
          7436.46     6.322176E-8
         7443.097     6.346025E-8
         7449.736     6.543485E-8
         7456.381     6.152233E-8
         7463.036     5.850480E-8
         7469.692     5.683603E-8
         7476.359     5.091787E-8
         7483.027     4.929832E-8
         7489.702     5.304978E-8
         7496.386     5.215179E-8
         7503.077     5.011631E-8
         7509.769     4.700819E-8
         7516.471     4.909332E-8
         7523.175     4.939535E-8
          7529.89     4.752675E-8
         7536.606     4.763938E-8
         7543.328     4.760749E-8
         7550.061     4.735042E-8
         7556.794     4.210533E-8
         7563.539     4.161721E-8
          7570.29     4.511701E-8
         7577.042     4.212784E-8
           7583.8     4.271399E-8
         7590.568     4.551210E-8
         7597.339     4.229670E-8
         7604.119     3.924454E-8
         7610.906     3.712573E-8
         7617.694     4.033953E-8
         7624.489     4.047509E-8
          7631.29     3.886253E-8
           7638.1     3.649439E-8
         7644.917     3.770060E-8
         7651.736     3.922636E-8
         7658.565     3.769114E-8
         7665.396     3.898887E-8
         7672.233     3.996354E-8
         7679.081     3.874242E-8
          7685.93     3.813087E-8
          7692.79     3.742852E-8
         7699.655     3.645816E-8
         7706.523     3.733491E-8
         7713.401     3.752187E-8
         7720.276     3.699901E-8
         7727.167     3.858586E-8
         7734.063     4.028116E-8
         7740.961     4.127525E-8
          7747.87     3.750639E-8
         7754.785     3.585429E-8
         7761.697     3.543667E-8
         7768.625     3.592305E-8
         7775.554     3.634125E-8
         7782.494     3.707315E-8
         7789.439     3.839121E-8
         7796.387     3.369622E-8
         7803.345     3.101298E-8
         7810.301     3.112453E-8
         7817.271     3.283699E-8
         7824.249     3.342180E-8
         7831.227     3.345113E-8
         7838.216     3.424650E-8
         7845.212     3.510833E-8
         7852.209     3.507419E-8
         7859.213     3.306408E-8
         7866.223     3.214233E-8
         7873.244     3.199466E-8
         7880.271     3.263970E-8
         7887.299     3.468753E-8
         7894.338     3.479841E-8
         7901.375     3.357259E-8
         7908.427     3.177021E-8
         7915.485     3.606629E-8
         7922.545     3.859714E-8
         7929.616     3.496277E-8
         7936.693     3.444984E-8
         7943.772     3.464248E-8
         7950.858     3.517570E-8
          7957.95     3.485815E-8
         7965.052     3.530762E-8
         7972.161     3.577039E-8
         7979.271     3.556017E-8
         7986.393     3.728805E-8
         7993.521     4.503201E-8
         8000.646     5.530467E-8
         8007.786     3.212941E-8
         8014.929     3.151654E-8
         8022.082     3.534194E-8
         8029.242     2.564853E-8
         8036.403     2.451157E-8
         8043.576     2.438169E-8
         8050.746     2.425214E-8
         8057.931     2.412264E-8
         8065.123     2.399332E-8
         8072.316     2.766765E-8
         8079.521     3.928614E-8
         8086.731     2.891651E-8
          8093.94     2.347823E-8
         8101.164     2.385596E-8
         8108.389     2.685063E-8
         8115.626     2.737509E-8
         8122.869     2.599076E-8
         8130.114     2.286309E-8
          8137.37     2.428342E-8
         8144.628     2.372358E-8
         8151.893     2.245723E-8
         8159.168     2.233043E-8
         8166.446     2.255248E-8
         8173.734     2.420310E-8
         8181.029     2.622359E-8
         8188.326     2.261807E-8
          8195.63     2.169980E-8
         8202.939     2.279371E-8
         8210.261     2.547947E-8
         8217.588     2.271193E-8
         8224.918     3.928897E-8
         8232.259     4.896568E-8
         8239.602     2.237674E-8
          8246.95     2.082540E-8
         8254.311     2.070126E-8
         8261.673     2.057740E-8
         8269.047     2.045366E-8
         8276.427     2.033015E-8
         8283.809     2.020693E-8
         8291.197     2.036831E-8
         8298.597     2.199067E-8
         8305.999     2.077723E-8
         8313.412     1.971594E-8
         8320.827     2.375466E-8
         8328.253     6.072890E-8
         8335.687     4.077843E-8
         8343.121     1.937069E-8
         8350.563     1.954032E-8
         8358.011     1.915348E-8
         8365.471     1.973791E-8
         8372.937     1.989647E-8
         8380.409     1.891438E-8
         8387.879     1.886401E-8
         8395.365     1.881321E-8
         8402.854     1.876206E-8
         8410.353     1.885320E-8
         8417.859     2.183080E-8
         8425.367     2.483569E-8
         8432.887     2.432196E-8
         8440.408     1.866356E-8
         8447.937     2.160510E-8
         8455.477     2.018805E-8
         8463.019     1.833935E-8
         8470.571     1.828481E-8
         8478.127     1.822990E-8
         8485.693     1.935921E-8
         8493.262     1.951666E-8
         8500.842     1.806245E-8
         8508.425     1.800267E-8
         8516.019     1.794246E-8
         8523.614     1.788187E-8
         8531.221     1.782084E-8
          8538.83     1.775943E-8
         8546.446     1.769761E-8
         8554.074     1.841928E-8
         8561.704     1.923146E-8
         8569.345     1.800735E-8
         8576.993     1.896225E-8
         8584.644     1.844807E-8
         8592.301     1.731782E-8
         8599.969     1.725303E-8
          8607.64     2.000756E-8
         8615.321     2.102088E-8
         8623.006     1.990837E-8
         8630.702     1.729829E-8
         8638.405     2.060246E-8
         8646.105     1.855366E-8
         8653.821     2.763775E-8
          8661.54     4.063853E-8
         8669.271     1.869891E-8
         8677.008     1.657340E-8
         8684.747     1.650158E-8
         8692.493     1.642933E-8
         8700.251     1.648008E-8
         8708.012     2.020719E-8
         8715.783     1.990232E-8
         8723.563     1.794936E-8
         8731.343     1.606161E-8
         8739.136     1.598677E-8
         8746.926     1.591159E-8
         8754.732     1.600653E-8
         8762.546     1.602724E-8
         8770.361     1.568322E-8
         8778.188     1.560622E-8
         8786.019     1.552882E-8
         8793.859     1.545094E-8
         8801.703     1.537266E-8
         8809.554     1.529393E-8
         8817.416     1.521472E-8
         8825.286     1.614968E-8
         8833.157     1.636146E-8
         8841.041     1.544477E-8
         8848.922     1.890258E-8
         8856.819     3.599117E-8
         8864.724     3.073824E-8
         8872.631     1.589726E-8
          8880.55     1.456501E-8
         8888.476     1.448173E-8
         8896.403     1.687057E-8
         8904.338     1.648743E-8
          8912.28     1.422925E-8
         8920.234     1.414411E-8
         8928.195     1.405851E-8
         8936.159     1.423376E-8
         8944.135     1.413320E-8
         8952.117     1.386769E-8
         8960.097     1.403109E-8
         8968.094     1.368076E-8
         8976.093     1.352890E-8
         8984.104     1.343811E-8
         8992.122     1.367380E-8
         9000.143     1.483238E-8
         9008.175     1.736384E-8
         9016.205     3.879335E-8
         9024.252     4.354098E-8
         9032.306     2.833885E-8
         9040.362     1.315002E-8
         9048.431     1.400693E-8
         9056.506     1.315642E-8
         9064.579     1.256538E-8
         9072.669     1.394420E-8
         9080.761     1.743105E-8
         9088.865     1.291431E-8
         9096.978     1.414981E-8
         9105.092     2.266304E-8
         9113.218     2.634159E-8
         9121.341     1.775458E-8
         9129.481     1.243962E-8
          9137.63     1.181734E-8
          9145.78     1.166349E-8
         9153.942     1.216231E-8
         9162.112     1.265157E-8
         9170.284     1.138416E-8
         9178.464     1.129018E-8
         9186.655     1.119569E-8
         9194.849     1.266341E-8
         9203.056     1.322415E-8
         9211.264     1.090955E-8
         9219.485     1.081320E-8
         9227.708     1.071645E-8
         9235.938     1.061923E-8
         9244.182     1.052148E-8
         9252.427     1.042293E-8
         9260.685     1.032291E-8
         9268.949     1.022244E-8
         9277.217     1.168322E-8
         9285.492     1.098595E-8
         9293.779     1.228467E-8
         9302.068     1.496352E-8
          9310.37     1.089267E-8
         9318.675     1.226623E-8
         9326.991     1.036797E-8
         9335.315     1.158710E-8
         9343.637     1.509359E-8
         9351.977     1.786031E-8
         9360.317     1.733632E-8
         9368.672     1.488920E-8
         9377.033     1.912180E-8
         9385.396     1.434232E-8
         9393.768     8.661345E-9
         9402.152     8.595430E-9
         9410.538     8.627237E-9
         9418.937     8.356704E-9
         9427.338     1.000296E-8
         9435.752     9.131838E-9
         9444.173     8.007405E-9
         9452.592     7.896849E-9
         9461.028     7.785681E-9
         9469.472     7.674039E-9
         9477.918     7.561971E-9
         9486.377     7.449348E-9
         9494.838     7.336311E-9
         9503.313     7.232317E-9
         9511.788     7.143310E-9
         9520.272     7.054406E-9
          9528.77     6.965570E-9
         9537.269     1.749363E-8
          9545.78     1.296424E-8
           9554.3     1.154046E-8
         9562.821     1.451551E-8
         9571.351     7.089335E-9
         9579.894     8.864389E-9
         9588.438     6.725091E-9
         9596.995     6.259543E-9
         9605.561     6.171834E-9
         9614.128     6.084313E-9
         9622.704     5.996911E-9
         9631.286     5.909662E-9
         9639.882     5.822489E-9
         9648.485     6.292619E-9
         9657.092     5.836667E-9
         9665.711     1.408831E-8
         9674.332     1.380589E-8
         9682.961     5.388853E-9
         9691.603     5.302523E-9
         9700.252     5.216338E-9
         9708.904     5.130348E-9
         9717.569     5.044458E-9
         9726.237     4.958764E-9
         9734.912     4.873230E-9
         9743.601     4.787788E-9
         9752.291     4.701995E-9
         9760.995     4.614766E-9
         9769.701     4.527818E-9
         9778.421     9.318557E-9
         9787.147     7.967732E-9
         9795.872     5.396621E-9
         9804.614     6.679512E-9
         9813.359     7.616670E-9
         9822.118     4.010723E-9
         9830.884     3.925331E-9
         9839.652     3.840223E-9
         9848.435     3.755298E-9
         9857.219     3.670669E-9
         9866.011     3.586282E-9
         9874.816     4.032860E-9
         9883.624     4.103998E-9
         9892.444     3.800282E-9
         9901.273     4.872336E-9
         9910.104     3.208108E-9
         9918.944     6.436853E-9
         9927.791     3.807997E-9
         9936.651     2.919930E-9
         9945.521     2.837750E-9
         9954.391     2.755896E-9
         9963.275     2.674243E-9
         9972.162     2.642376E-9
         9981.057     2.862239E-9
         9989.964     3.820614E-9
          9998.88     4.473027E-9
          10007.8     3.829263E-9
         10016.72     2.685973E-9
         10025.67     2.207164E-9
          10034.6     2.161509E-9
         10043.56     2.116057E-9
         10052.52     2.070967E-9
         10061.49     2.026197E-9
         10070.47     2.004907E-9
         10079.46     2.391765E-9
         10088.45     1.966715E-9
         10097.44     1.879392E-9
         10106.46     1.845625E-9
         10115.48     1.781261E-9
          10124.5     1.721552E-9
         10133.53     1.679320E-9
         10142.58     2.100711E-9
         10151.62     3.063451E-9
         10160.68     1.601241E-9
         10169.74     2.166409E-9
         10178.81     1.550435E-9
          10187.9     1.562991E-9
         10196.99     1.552732E-9
         10206.08     1.681044E-9
         10215.19     1.518964E-9
         10224.31     1.274799E-9
         10233.43     2.033030E-9
         10242.56     2.873484E-9
         10251.69     1.159927E-9
         10260.85     1.122260E-9
           10270.     1.084979E-9
         10279.16     1.069894E-9
         10288.33     1.034455E-9
         10297.51     1.134165E-9
          10306.7     1.004151E-9
         10315.89    9.190995E-10
          10325.1    8.807517E-10
          10334.3    8.334647E-10
         10343.53    9.360164E-10
         10352.76     1.033600E-9
         10361.99    7.308018E-10
         10371.25    6.972523E-10
          10380.5    6.678760E-10
         10389.76    7.017923E-10
         10399.02    6.055154E-10
          10408.3    7.196140E-10
         10417.59    5.767669E-10
         10426.89    6.099907E-10
         10436.19    5.278054E-10
         10445.49    4.417920E-10
         10454.82    4.542817E-10
         10464.15    5.819829E-10
         10473.48    5.726390E-10
         10482.82    3.225969E-10
         10492.17    2.937120E-10
         10501.54    2.688521E-10
         10510.91    2.629539E-10
         10520.29    2.571077E-10
         10529.67    2.513154E-10
         10539.07    2.455688E-10
         10548.47    2.398824E-10
         10557.88    4.154505E-10
         10567.31    2.890778E-10
         10576.73    2.231384E-10
         10586.17    4.334031E-10
         10595.61    3.619648E-10
         10605.06    2.068874E-10
         10614.53    2.015719E-10
           10624.    1.963186E-10
         10633.48    1.911194E-10
         10642.96    1.923646E-10
         10652.45    2.003106E-10
         10661.97    1.872403E-10
         10671.48    1.708688E-10
         10680.99    1.659463E-10
         10690.53    1.610740E-10
         10700.07    1.562635E-10
         10709.61    1.515090E-10
         10719.16    1.654895E-10
         10728.72    1.446867E-10
         10738.31    1.712232E-10
         10747.88    6.428558E-10
         10757.47    3.527777E-10
         10767.08    1.500979E-10
         10776.67    1.198088E-10
         10786.29    1.570429E-10
         10795.91    1.372497E-10
         10805.54    1.139123E-10
         10815.18    1.086661E-10
         10824.83    2.010433E-10
         10834.49    2.158734E-10
         10844.17    1.023677E-10
         10853.84    8.702706E-11
         10863.52    8.319430E-11
         10873.21    7.942097E-11
         10882.91    1.056083E-10
         10892.63    1.479975E-10
         10902.35    9.144910E-11
         10912.07    1.069084E-10
         10921.81    7.228506E-11
         10931.54    5.802734E-11
         10941.31    5.466836E-11
         10951.07    5.137430E-11
         10960.83    4.814090E-11
         10970.62    4.496459E-11
         10980.39    4.185685E-11
          10990.2    3.896978E-11
           11000.    4.350588E-11
