#  Table wf4f185wsys.tab  Mon 12:22:42 02-Jun-97

#      WAVELENGTH      THROUGHPUT
#       angstroms                

            1640.              0.
         1641.562     6.073004E-6
         1643.125     1.214482E-5
         1644.691     1.821777E-5
         1646.258     2.428848E-5
         1647.825     3.034889E-5
         1649.395     3.643765E-5
         1650.966     4.255660E-5
         1652.538     4.870763E-5
         1654.113     5.487999E-5
         1655.689     6.106746E-5
         1657.265     6.727242E-5
         1658.844     7.349587E-5
         1660.425     7.976039E-5
         1662.006     8.609860E-5
         1663.589     9.246676E-5
         1665.173     9.886449E-5
         1666.759     1.052924E-4
         1668.347     1.117535E-4
         1669.936     1.182409E-4
         1671.527     1.248537E-4
          1673.12     1.315149E-4
         1674.712     1.382090E-4
         1676.308     1.449518E-4
         1677.905     1.517361E-4
         1679.502     1.585543E-4
         1681.103     1.655000E-4
         1682.704     1.725275E-4
         1684.307     1.796070E-4
         1685.911     1.867420E-4
         1687.517     1.939251E-4
         1689.124     2.011609E-4
         1690.733     2.085053E-4
         1692.344     2.159792E-4
         1693.956     2.235113E-4
          1695.57     2.311100E-4
         1697.185     2.387664E-4
           1698.8     2.464819E-4
         1700.419     2.563853E-4
          1702.04     2.724672E-4
         1703.661     2.886901E-4
         1705.283     3.050659E-4
         1706.908     3.216044E-4
         1708.533     3.382778E-4
         1710.161     3.551420E-4
          1711.79     3.722944E-4
          1713.42     3.896203E-4
         1715.053     4.071272E-4
         1716.685     4.247888E-4
         1718.321     4.426458E-4
         1719.958     4.606796E-4
         1721.596     4.790244E-4
         1723.236     4.975830E-4
         1724.877     5.163241E-4
          1726.52     5.352572E-4
         1728.165     5.543966E-4
         1729.811     5.737210E-4
         1731.459     5.950766E-4
         1733.108     6.168993E-4
         1734.759     6.389667E-4
         1736.411     6.612559E-4
         1738.065     6.837831E-4
         1739.721     7.065606E-4
         1741.377     7.296713E-4
         1743.037     7.530832E-4
         1744.698     7.767479E-4
         1746.358     8.006385E-4
         1748.023     8.248131E-4
         1749.687     8.492314E-4
         1751.354     8.729537E-4
         1753.023     8.966710E-4
         1754.691     9.205575E-4
         1756.363     9.446687E-4
         1758.036     9.689666E-4
          1759.71     9.934660E-4
         1761.387      0.00101517
         1763.066      0.00103642
         1764.744     0.001057817
         1766.425       0.0010794
         1768.108     0.001101171
         1769.792     0.001123105
         1771.478     0.001145334
         1773.165     0.001167748
         1774.854     0.001190344
         1776.545     0.001213124
         1778.237       0.0012361
         1779.931     0.001259248
         1781.626     0.001282703
         1783.324     0.001306367
         1785.021     0.001330195
         1786.722     0.001354244
         1788.425     0.001378487
         1790.127     0.001402132
         1791.833      0.00141647
          1793.54     0.001430899
         1795.248     0.001445426
         1796.958     0.001460061
          1798.67     0.001474787
         1800.383     0.001489641
         1802.098     0.001504697
         1803.814     0.001519856
         1805.533     0.001535126
         1807.252     0.001550491
         1808.975     0.001565971
         1810.696     0.001581598
         1812.423     0.001597448
         1814.148     0.001613379
         1815.876     0.001629428
         1817.606     0.001645596
         1819.336     0.001661855
         1821.071     0.001674703
         1822.805       0.0016854
         1824.541     0.001696151
         1826.279     0.001706956
         1828.018     0.001717815
          1829.76     0.001728734
         1831.503     0.001739833
         1833.248     0.001751015
         1834.993      0.00176224
         1836.742     0.001773534
         1838.492     0.001784885
         1840.242       0.0017963
         1841.996     0.001807912
          1843.75     0.001819575
         1845.506     0.001831298
         1847.265     0.001843085
         1849.024     0.001854925
         1850.785     0.001864207
         1852.547     0.001870248
         1854.312     0.001876286
         1856.078     0.001882323
         1857.847     0.001888361
         1859.616     0.001894392
         1861.387     0.001900545
         1863.161     0.001906734
         1864.934     0.001912913
         1866.711     0.001919096
          1868.49     0.001925277
         1870.269     0.001931471
         1872.051     0.001937795
         1873.834     0.001944112
         1875.619     0.001950431
         1877.406     0.001956743
         1879.194     0.001962895
         1880.983     0.001967835
         1882.775     0.001972833
         1884.569     0.001977818
         1886.364     0.001982786
         1888.161     0.001987743
          1889.96     0.001992682
         1891.759     0.001997742
         1893.561     0.002002795
         1895.365     0.002007832
         1897.171     0.002012855
         1898.978      0.00201786
         1900.785     0.002022916
         1902.597     0.002028052
          1904.41     0.002033173
         1906.223     0.002038275
         1908.039     0.002043361
         1909.857     0.002048433
         1911.675     0.002050018
         1913.497     0.002051257
          1915.32     0.002052443
         1917.143     0.002053574
          1918.97     0.002054653
         1920.798      0.00205573
         1922.627     0.002056823
         1924.459      0.00205786
         1926.292     0.002058842
         1928.126     0.002059768
         1929.963     0.002060639
         1931.802     0.002061584
         1933.642     0.002062474
         1935.483     0.002063308
         1937.328     0.002064083
         1939.172     0.002064801
         1941.021     0.002064871
         1942.869     0.002064395
         1944.719     0.002063849
         1946.572     0.002063233
         1948.426     0.002062546
         1950.282     0.002061806
          1952.14       0.0020611
         1953.998     0.002060321
          1955.86      0.00205947
         1957.723     0.002058544
         1959.588     0.002057546
         1961.454     0.002056529
         1963.324     0.002055453
         1965.192     0.002054303
         1967.064     0.002053077
         1968.939     0.002051775
         1970.814     0.002049871
         1972.692     0.002047193
          1974.57     0.002044426
         1976.451      0.00204157
         1978.334     0.002038622
         1980.219     0.002035592
         1982.104     0.002032524
         1983.992     0.002029364
         1985.883      0.00202611
         1987.774     0.002022766
         1989.667     0.002019328
         1991.563     0.002015839
         1993.459      0.00201227
         1995.359     0.002008602
          1997.26     0.002004838
         1999.161     0.002000983
         2001.066     0.001995527
         2002.972      0.00198876
         2004.879     0.001981848
          2006.79     0.001974787
           2008.7     0.001967588
         2010.614     0.001960245
         2012.529     0.001952784
         2014.447     0.001945169
         2016.365     0.001937407
         2018.287     0.001929491
         2020.208     0.001921429
         2022.132     0.001913192
         2024.059     0.001904796
         2025.985     0.001896256
         2027.917     0.001887545
         2029.849     0.001878688
         2031.782     0.001866026
         2033.717     0.001852857
         2035.654     0.001839488
         2037.594     0.001825911
         2039.534     0.001812139
         2041.478     0.001798124
         2043.421     0.001783913
         2045.368     0.001769479
         2047.316     0.001754849
         2049.266     0.001740012
         2051.219     0.001724918
         2053.172     0.001709603
         2055.128     0.001694076
         2057.085     0.001678342
         2059.045     0.001662387
         2061.006     0.001644928
         2062.969     0.001626005
         2064.934     0.001606845
           2066.9     0.001587448
          2068.87     0.001567803
         2070.842     0.001547876
         2072.813     0.001527684
         2074.788     0.001507226
         2076.764     0.001486539
         2078.742     0.001465611
         2080.721     0.001444397
         2082.703     0.001422868
         2084.688     0.001401085
         2086.673     0.001379071
         2088.662     0.001356797
         2090.651     0.001334854
         2092.642      0.00131384
         2094.635     0.001292596
          2096.63     0.001271126
         2098.629     0.001249401
         2100.626     0.001227444
         2102.628     0.001205149
         2104.631      0.00118264
         2106.634     0.001159911
         2108.643     0.001136916
          2110.65     0.001113686
         2112.661     0.001090112
         2114.673     0.001066321
         2116.686     0.001042319
         2118.704     0.001018043
         2120.722     9.955510E-4
         2122.742     9.764314E-4
         2124.763     9.571329E-4
         2126.788     9.376458E-4
         2128.815     9.179786E-4
         2130.841     8.980957E-4
         2132.872     8.779349E-4
         2134.902     8.576222E-4
         2136.936     8.371082E-4
         2138.972     8.165393E-4
         2141.009     7.958675E-4
         2143.049     7.749156E-4
         2145.089     7.537985E-4
         2147.134     7.324621E-4
         2149.179     7.109614E-4
         2151.226     6.951605E-4
         2153.274     6.831868E-4
         2155.325     6.711091E-4
         2157.379     6.589211E-4
         2159.434     6.466341E-4
         2161.491     6.341389E-4
          2163.55     6.215136E-4
         2165.609     6.087951E-4
         2167.673     5.959598E-4
         2169.738     5.830303E-4
         2171.805     5.698709E-4
         2173.874     5.566050E-4
         2175.943     5.432505E-4
         2178.016     5.297828E-4
         2180.092     5.162121E-4
         2182.168     5.024319E-4
         2184.246     4.885619E-4
         2186.328     4.745902E-4
         2188.409     4.605427E-4
         2190.494     4.474714E-4
         2192.582     4.378258E-4
          2194.67     4.281272E-4
          2196.76     4.183698E-4
         2198.852     4.085522E-4
         2200.946     3.996997E-4
         2203.043     3.919353E-4
         2205.142     3.839915E-4
         2207.242     3.758629E-4
         2209.344     3.675483E-4
         2211.449     3.609964E-4
         2213.555     3.551891E-4
         2215.664     3.492447E-4
         2217.774     3.431622E-4
         2219.886     3.369409E-4
         2222.001     3.305286E-4
         2224.117     3.239792E-4
         2226.236     3.172910E-4
         2228.357     3.104585E-4
         2230.479     3.040004E-4
         2232.604     2.991731E-4
          2234.73     2.942420E-4
         2236.858     2.892076E-4
          2238.99     2.840654E-4
         2241.122     2.787994E-4
         2243.258     2.734059E-4
         2245.393     2.679146E-4
         2247.534     2.623090E-4
         2249.673     2.566073E-4
         2251.816     2.523055E-4
         2253.962     2.481928E-4
         2256.107     2.440062E-4
         2258.258     2.397326E-4
         2260.409     2.353954E-4
         2262.562     2.310243E-4
         2264.717     2.265757E-4
         2266.873     2.220492E-4
         2269.034     2.174410E-4
         2271.195     2.134918E-4
         2273.359     2.100710E-4
         2275.523     2.065943E-4
         2277.691     2.030533E-4
          2279.86     1.994538E-4
         2282.032     1.957757E-4
         2284.206     1.920341E-4
          2286.38     1.882365E-4
         2288.559     1.843730E-4
          2290.74     1.808360E-4
         2292.922     1.780028E-4
         2295.105     1.751232E-4
         2297.291     1.722338E-4
         2299.479     1.693214E-4
          2301.67     1.663123E-4
         2303.863     1.632408E-4
         2306.058     1.601180E-4
         2308.253     1.569485E-4
         2310.453     1.539229E-4
         2312.653     1.516207E-4
         2314.855     1.492807E-4
         2317.062     1.469008E-4
         2319.267     1.444856E-4
         2321.477     1.420218E-4
         2323.689     1.395163E-4
         2325.902     1.369735E-4
         2328.117     1.343921E-4
         2330.335     1.318771E-4
         2332.554     1.299204E-4
         2334.777     1.279320E-4
         2337.002     1.259133E-4
         2339.226     1.238663E-4
         2341.455     1.217802E-4
         2343.685     1.196618E-4
         2345.917     1.175123E-4
         2348.153     1.153308E-4
         2350.388     1.132193E-4
         2352.628     1.115466E-4
         2354.868     1.098509E-4
         2357.112     1.081296E-4
         2359.357     1.063848E-4
         2361.604     1.046090E-4
         2363.853     1.028058E-4
         2366.104     1.009782E-4
         2368.359     9.912482E-5
         2370.615     9.737826E-5
         2372.873     9.595784E-5
         2375.134     9.451731E-5
         2377.396     9.305830E-5
          2379.66     9.157979E-5
         2381.926     9.007489E-5
         2384.195     8.854941E-5
         2386.467     8.700365E-5
          2388.74     8.543921E-5
         2391.016     8.405088E-5
         2393.293     8.289073E-5
         2395.573     8.171585E-5
         2397.854     8.052605E-5
         2400.138     7.931291E-5
         2402.426     7.795204E-5
         2404.713     7.657727E-5
         2407.003     7.518573E-5
         2409.297     7.377692E-5
          2411.59     7.262888E-5
         2413.889     7.158795E-5
         2416.187     7.053652E-5
          2418.49     6.947153E-5
         2420.793     6.839284E-5
         2423.097     6.729866E-5
         2425.407     6.619019E-5
         2427.716     6.507143E-5
          2430.03     6.394252E-5
         2432.344     6.307542E-5
         2434.662     6.219808E-5
         2436.979     6.131199E-5
           2439.3     6.041555E-5
         2441.626     5.945567E-5
          2443.95     5.846448E-5
         2446.279     5.746160E-5
         2448.608     5.644897E-5
          2450.94     5.554275E-5
         2453.276     5.480058E-5
         2455.611     5.405136E-5
         2457.951     5.329341E-5
         2460.292     5.252754E-5
         2462.637     5.175135E-5
         2464.982     5.096770E-5
          2467.33     5.017598E-5
         2469.681     4.937573E-5
         2472.031     4.869929E-5
         2474.387     4.803576E-5
         2476.745     4.736547E-5
         2479.103     4.668913E-5
         2481.465     4.605297E-5
         2483.828     4.544020E-5
         2486.194     4.482123E-5
         2488.563     4.419566E-5
         2490.932     4.359581E-5
         2493.305     4.303764E-5
          2495.68     4.247420E-5
         2498.058     4.190470E-5
         2500.437     4.132992E-5
          2502.82     4.074903E-5
         2505.202     4.016308E-5
         2507.588     3.957103E-5
         2509.978     3.897290E-5
         2512.368     3.845196E-5
         2514.762     3.792635E-5
         2517.157     3.739585E-5
         2519.555     3.686016E-5
         2521.954     3.638810E-5
         2524.358     3.592686E-5
         2526.762     3.546131E-5
         2529.168     3.499114E-5
         2531.578     3.457297E-5
         2533.988     3.418119E-5
         2536.403     3.378499E-5
         2538.818     3.333592E-5
         2541.236     3.282397E-5
         2543.658     3.226666E-5
          2546.08     3.170685E-5
         2548.505     3.114425E-5
         2550.934     3.068045E-5
         2553.363     3.037811E-5
         2555.795     3.007408E-5
         2558.229     2.976833E-5
         2560.666     2.941254E-5
         2563.106     2.892569E-5
         2565.547     2.843669E-5
          2567.99     2.794520E-5
         2570.436     2.748348E-5
         2572.887     2.716816E-5
         2575.336     2.685167E-5
         2577.788     2.653329E-5
         2580.245     2.621313E-5
         2582.701     2.589290E-5
         2585.163     2.557033E-5
         2587.625     2.524639E-5
          2590.09     2.492080E-5
         2592.557     2.459469E-5
         2595.026     2.426683E-5
         2597.499     2.393701E-5
         2599.972     2.360563E-5
          2602.45     2.327364E-5
         2604.927     2.294026E-5
         2607.409     2.260469E-5
         2609.893     2.226758E-5
         2612.378     2.210971E-5
         2614.868     2.195891E-5
         2617.357     2.180731E-5
         2619.851     2.165454E-5
         2622.347     2.132334E-5
         2624.843     2.097942E-5
         2627.345     2.063324E-5
         2629.847     2.028548E-5
         2632.352     2.011710E-5
          2634.86     1.995941E-5
         2637.369     1.980078E-5
         2639.881     1.964116E-5
         2642.395     1.938892E-5
         2644.913     1.913055E-5
         2647.432     1.887088E-5
         2649.954     1.860980E-5
         2652.478     1.844441E-5
         2655.004     1.827983E-5
         2657.534     1.811413E-5
         2660.066     1.794744E-5
         2662.599     1.778058E-5
         2665.135     1.761267E-5
         2667.674     1.744374E-5
         2670.214     1.727385E-5
         2672.759     1.710331E-5
         2675.303     1.693196E-5
         2677.854     1.675929E-5
         2680.402     1.658601E-5
         2682.957     1.641209E-5
         2685.512     1.623727E-5
          2688.07     1.606141E-5
          2690.63     1.588463E-5
         2693.194     1.570702E-5
         2695.759     1.552848E-5
         2698.327     1.534882E-5
         2700.896     1.521315E-5
         2703.469     1.516028E-5
         2706.044     1.510670E-5
         2708.622     1.505239E-5
         2711.201     1.494862E-5
         2713.783     1.478759E-5
         2716.369     1.462490E-5
         2718.958     1.446068E-5
         2721.547     1.435894E-5
         2724.139     1.429939E-5
         2726.734     1.423908E-5
         2729.331     1.417801E-5
         2731.931     1.411623E-5
         2734.532     1.405380E-5
         2737.139     1.399048E-5
         2739.744     1.392651E-5
         2742.355     1.376223E-5
         2744.967     1.358568E-5
         2747.581     1.340752E-5
         2750.199     1.323367E-5
         2752.817     1.313208E-5
          2755.44     1.303011E-5
         2758.066     1.292786E-5
         2760.691     1.282542E-5
         2763.322     1.272247E-5
         2765.954     1.261931E-5
          2768.59     1.251582E-5
         2771.225     1.241213E-5
         2773.864     1.230807E-5
         2776.509     1.220362E-5
          2779.15     1.209914E-5
           2781.8     1.199398E-5
         2784.449     1.188859E-5
         2787.101     1.178294E-5
         2789.756     1.167702E-5
         2792.413     1.157057E-5
         2795.075     1.146371E-5
         2797.734     1.135683E-5
         2800.402     1.124942E-5
         2803.069     1.114168E-5
         2805.738     1.103367E-5
         2808.412     1.092534E-5
         2811.085     1.086391E-5
         2813.764     1.087129E-5
         2816.444     1.087867E-5
         2819.127     1.088607E-5
         2821.813     1.081431E-5
           2824.5     1.070422E-5
          2827.19     1.059388E-5
         2829.883     1.048327E-5
         2832.578     1.037226E-5
         2835.278     1.026086E-5
         2837.979     1.014933E-5
         2840.682     1.003746E-5
         2843.387     9.925120E-6
         2846.095     9.812524E-6
         2848.805     9.699680E-6
         2851.519     9.653148E-6
         2854.236     9.658956E-6
         2856.954     9.664769E-6
         2859.677     9.670591E-6
           2862.4     9.570679E-6
         2865.126     9.456295E-6
         2867.855     9.341669E-6
         2870.586     9.226731E-6
         2873.322     9.111302E-6
         2876.058     8.995690E-6
         2878.797     8.879837E-6
         2881.541     8.831665E-6
         2884.285     8.836541E-6
         2887.032     8.841424E-6
         2889.781     8.846312E-6
         2892.534     8.738886E-6
         2895.289     8.621536E-6
         2898.049     8.503815E-6
         2900.809     8.417096E-6
         2903.572     8.405321E-6
         2906.337     8.393517E-6
         2909.105     8.381682E-6
         2911.877     8.286993E-6
         2914.649     8.153147E-6
         2917.427     8.019342E-6
         2920.205     7.894819E-6
         2922.988     7.883214E-6
         2925.771     7.871593E-6
         2928.558     7.859945E-6
         2931.347     7.789461E-6
         2934.139     7.656161E-6
         2936.935     7.523019E-6
         2939.734     7.390090E-6
         2942.532     7.367279E-6
         2945.336     7.355994E-6
         2948.141     7.344687E-6
         2950.948     7.292381E-6
         2953.759     7.159857E-6
         2956.572     7.027587E-6
         2959.391     6.895403E-6
         2962.206     6.858361E-6
         2965.031     6.847416E-6
         2967.855     6.836458E-6
         2970.681     6.796399E-6
          2973.51     6.664856E-6
         2976.342     6.533579E-6
          2979.18     6.402402E-6
         2982.016     6.357090E-6
         2984.856     6.346530E-6
           2987.7     6.335943E-6
         2990.544     6.325342E-6
         2993.396     6.314698E-6
         2996.245     6.304047E-6
           2999.1     6.293364E-6
         3001.956     6.200683E-6
         3004.813     6.070584E-6
         3007.679     5.940517E-6
         3010.543     5.833522E-6
          3013.41     5.823399E-6
          3016.28     5.813255E-6
         3019.153     5.803091E-6
         3022.031     5.792858E-6
         3024.908     5.782606E-6
         3027.791     5.772319E-6
         3030.674     5.734266E-6
         3033.561     5.605358E-6
          3036.45     5.476748E-6
         3039.342     5.348437E-6
         3042.238     5.311788E-6
         3045.135     5.302077E-6
         3048.035     5.292348E-6
          3050.94     5.282579E-6
         3053.845     5.272768E-6
         3056.754     5.262936E-6
         3059.665     5.253084E-6
         3062.579     5.139193E-6
         3065.498     5.012007E-6
         3068.417     4.885213E-6
         3071.341     4.812438E-6
         3074.266     4.803258E-6
         3077.194     4.794060E-6
         3080.125     4.784842E-6
         3083.058     4.775563E-6
         3085.994     4.766266E-6
         3088.934     4.756949E-6
         3091.877     4.747612E-6
         3094.823     4.738257E-6
         3097.771     4.728889E-6
         3100.721     4.695220E-6
         3103.676     4.586116E-6
          3106.63     4.476660E-6
         3109.591     4.366615E-6
         3112.552     4.357261E-6
         3115.516     4.364112E-6
         3118.485     4.370977E-6
         3121.455     4.377851E-6
         3124.428     4.384739E-6
         3127.404     4.391638E-6
         3130.382     4.383264E-6
         3133.367     4.270591E-6
         3136.349     4.157641E-6
         3139.338     4.044080E-6
         3142.328     4.023812E-6
         3145.321     4.030155E-6
         3148.316     4.036509E-6
         3151.315     4.042857E-6
         3154.316     4.049196E-6
          3157.32     4.055545E-6
         3160.329     4.061908E-6
          3163.34     4.068289E-6
         3166.353     4.074675E-6
          3169.37     4.081078E-6
         3172.387     3.989886E-6
         3175.408     3.872422E-6
         3178.434     3.754403E-6
         3181.461     3.695989E-6
         3184.493     3.701806E-6
         3187.524     3.707626E-6
         3190.563     3.713460E-6
           3193.6     3.719270E-6
         3196.642     3.725092E-6
          3199.69     3.730931E-6
         3202.734     3.736768E-6
         3205.787     3.742629E-6
         3208.841     3.748492E-6
         3211.896     3.675279E-6
         3214.956     3.553270E-6
         3218.017     3.430751E-6
         3221.086     3.353064E-6
         3224.152     3.358327E-6
         3227.224     3.363605E-6
         3230.298     3.368888E-6
         3233.372     3.374184E-6
         3236.453     3.379493E-6
         3239.536     3.384810E-6
         3242.623     3.390171E-6
         3245.711     3.395544E-6
         3248.802     3.400926E-6
         3251.898     3.406303E-6
         3254.995     3.411674E-6
         3258.095     3.417055E-6
         3261.198     3.422447E-6
         3264.304     3.427851E-6
         3267.415     3.433270E-6
         3270.525     3.416145E-6
         3273.643     3.287335E-6
         3276.761     3.158123E-6
         3279.882     3.028374E-6
         3283.005     3.028052E-6
         3286.132     3.032851E-6
         3289.262     3.037658E-6
         3292.394     3.042499E-6
         3295.532     3.047360E-6
         3298.672     3.052230E-6
         3301.812     3.057105E-6
         3304.958     3.061997E-6
         3308.106     3.066896E-6
         3311.257     3.071806E-6
         3314.412     3.076731E-6
         3317.569     3.081664E-6
         3320.728     3.054503E-6
         3323.891     2.919730E-6
         3327.058     2.784304E-6
         3330.227     2.658430E-6
         3333.398     2.662733E-6
         3336.573     2.667044E-6
         3339.754     2.671367E-6
         3342.932     2.675694E-6
         3346.119     2.680039E-6
         3349.306     2.684387E-6
         3352.496     2.688748E-6
         3355.688     2.693118E-6
         3358.884     2.697495E-6
         3362.083     2.701886E-6
         3365.285     2.706286E-6
         3368.492     2.710698E-6
         3371.702     2.715135E-6
         3374.911     2.719591E-6
         3378.127     2.724060E-6
         3381.345     2.667386E-6
         3384.565     2.525085E-6
          3387.79     2.382098E-6
         3391.017     2.285046E-6
         3394.248     2.288841E-6
         3397.479     2.292639E-6
         3400.717     2.296450E-6
         3403.955     2.300271E-6
         3407.197     2.304100E-6
         3410.444     2.307939E-6
          3413.69     2.311787E-6
         3416.943     2.315647E-6
         3420.199     2.319516E-6
         3423.457     2.323421E-6
         3426.717     2.327332E-6
         3429.981     2.331251E-6
         3433.247     2.335208E-6
         3436.519     2.339176E-6
         3439.792     2.343147E-6
          3443.07     2.347139E-6
         3446.349     2.351137E-6
         3449.631     2.355141E-6
         3452.917     2.359183E-6
         3456.205     2.363237E-6
         3459.499     2.367300E-6
         3462.791     2.238991E-6
         3466.093     2.085987E-6
         3469.394     1.932482E-6
         3472.698     1.906948E-6
         3476.006     1.910263E-6
         3479.316     1.913585E-6
         3482.632     1.916938E-6
         3485.947     1.920300E-6
         3489.269     1.923671E-6
         3492.594     1.927057E-6
         3495.918     1.930448E-6
         3499.249     1.933848E-6
         3502.582     1.937276E-6
         3505.918     1.940718E-6
         3509.259     1.944168E-6
         3512.599     1.947645E-6
         3515.948     1.951140E-6
         3519.297     1.954638E-6
         3522.648     1.958151E-6
         3526.003     1.961671E-6
         3529.361     1.965198E-6
         3532.725     1.968776E-6
         3536.089     1.972369E-6
         3539.457     1.975968E-6
          3542.83     1.979565E-6
         3546.204     1.983166E-6
         3549.581     1.986774E-6
         3552.962     1.990414E-6
         3556.345     1.994066E-6
         3559.732     1.997724E-6
         3563.123     2.001417E-6
          3566.52     2.005125E-6
         3569.917     2.008835E-6
         3573.317     1.845685E-6
          3576.72     1.677567E-6
         3580.126     1.515022E-6
         3583.536     1.517855E-6
         3586.949     1.520693E-6
         3590.367     1.523539E-6
         3593.788     1.526396E-6
         3597.209     1.529254E-6
         3600.637     1.532125E-6
         3604.066     1.535018E-6
         3607.499     1.537916E-6
         3610.934     1.540817E-6
         3614.373     1.543716E-6
         3617.819     1.546625E-6
         3621.263     1.549548E-6
         3624.714     1.552504E-6
         3628.166     1.555465E-6
         3631.621     1.558425E-6
         3635.082     1.561388E-6
         3638.542     1.564352E-6
         3642.009     1.567328E-6
          3645.48     1.570312E-6
         3648.952     1.573299E-6
         3652.427     1.576308E-6
         3655.906     1.579330E-6
         3659.387     1.582358E-6
         3662.875     1.585396E-6
         3666.361     1.588437E-6
         3669.857     1.591489E-6
          3673.35     1.594547E-6
          3676.85     1.597615E-6
         3680.352     1.600688E-6
         3683.857     1.603769E-6
         3687.365     1.606855E-6
         3690.877     1.609950E-6
         3694.395     1.613055E-6
         3697.915     1.616167E-6
         3701.437     1.619284E-6
         3704.962     1.622409E-6
          3708.49     1.625540E-6
         3712.022     1.518881E-6
         3715.558     1.329524E-6
         3719.098     1.139124E-6
         3722.642     1.092096E-6
         3726.186     1.094207E-6
         3729.737     1.096325E-6
         3733.289     1.098447E-6
         3736.844     1.100573E-6
         3740.405     1.102705E-6
         3743.966     1.104840E-6
         3747.533     1.106982E-6
         3751.102     1.109127E-6
         3754.677     1.111278E-6
         3758.253     1.113433E-6
         3761.832     1.115586E-6
         3765.415     1.117738E-6
         3769.003     1.119895E-6
         3772.593     1.122065E-6
         3776.188     1.124244E-6
         3779.782     1.126425E-6
         3783.384     1.128602E-6
         3786.987     1.130780E-6
         3790.594     1.132962E-6
         3794.204     1.135137E-6
         3797.817     1.137317E-6
         3801.438     1.139509E-6
         3805.059     1.141711E-6
         3808.683     1.143916E-6
          3812.31     1.146119E-6
         3815.941     1.148321E-6
         3819.575     1.150526E-6
         3823.213     1.152725E-6
         3826.856     1.154927E-6
         3830.503     1.157134E-6
         3834.149     1.159343E-6
         3837.802     1.161559E-6
         3841.458     1.163777E-6
         3845.116     1.165999E-6
          3848.78     1.168227E-6
         3852.443     1.170446E-6
         3856.115     1.172669E-6
         3859.787     1.174894E-6
         3863.465     1.177111E-6
         3867.145     1.179331E-6
         3870.828     1.181554E-6
         3874.516     1.183782E-6
         3878.206     1.186013E-6
         3881.898     1.188240E-6
         3885.597     1.190466E-6
         3889.298     1.192696E-6
         3893.004     1.194929E-6
         3896.711     1.197164E-6
         3900.423     1.199401E-6
         3904.137     1.201630E-6
         3907.855     1.203863E-6
         3911.582     1.206095E-6
         3915.307     1.208320E-6
         3919.036     1.210549E-6
         3922.768     1.212769E-6
         3926.504     1.214990E-6
         3930.244     1.217214E-6
         3933.987     1.219440E-6
         3937.736     1.221671E-6
         3941.486     1.223893E-6
          3945.24     1.226100E-6
         3948.999     1.228312E-6
          3952.76     1.230524E-6
         3956.525     1.232739E-6
         3960.293     1.234956E-6
         3964.064     1.237146E-6
         3967.842     1.239342E-6
         3971.621     1.241539E-6
         3975.406     1.243739E-6
         3979.192     1.245941E-6
         3982.981     1.062070E-6
         3986.777     8.266603E-7
         3990.572     6.262558E-7
         3994.372     6.273382E-7
         3998.179     6.284233E-7
         4001.986     6.288855E-7
           4005.8     6.287752E-7
         4009.615     6.286645E-7
         4013.434     6.285440E-7
         4017.256     6.284221E-7
         4021.082     6.282964E-7
         4024.916     6.281627E-7
         4028.747     6.280285E-7
         4032.586     6.278869E-7
         4036.427     6.277416E-7
         4040.271     6.275952E-7
         4044.119     6.274387E-7
          4047.97     6.272815E-7
         4051.828     6.271191E-7
         4055.689     6.269505E-7
         4059.552     6.267815E-7
         4063.418     6.266035E-7
         4067.288     6.264239E-7
         4071.161     6.262404E-7
         4075.039     6.260491E-7
         4078.922     6.258572E-7
         4082.807     6.256581E-7
         4086.695     6.254557E-7
         4090.589     6.252522E-7
         4094.485     6.250466E-7
         4098.385     6.248403E-7
         4102.288     6.246232E-7
         4106.195     6.243983E-7
         4110.105     6.241729E-7
         4114.022     6.239449E-7
         4117.942     6.237162E-7
         4121.864     6.234793E-7
          4125.79     6.232327E-7
         4129.719     6.229855E-7
         4133.652     6.227357E-7
         4137.589     6.224851E-7
         4141.534     6.222329E-7
         4145.477     6.219794E-7
         4149.427     6.217251E-7
         4153.379     6.214556E-7
         4157.334     6.211831E-7
         4161.293     6.209097E-7
         4165.257     6.206346E-7
         4169.229     6.203586E-7
         4173.199     6.200745E-7
         4177.171     6.197879E-7
         4181.152     6.195002E-7
         4185.134     6.192111E-7
          4189.12     6.189212E-7
         4193.109     6.186239E-7
         4197.105     6.183239E-7
         4201.102     6.182688E-7
         4205.101     6.188592E-7
          4209.11     6.194516E-7
         4213.119     6.200429E-7
         4217.132     6.206346E-7
         4221.148     6.212247E-7
         4225.168     6.218086E-7
         4229.197     6.223943E-7
         4233.222     6.229785E-7
         4237.256     6.235640E-7
         4241.292     6.241473E-7
         4245.331     6.247249E-7
         4249.375     6.253035E-7
         4253.421     6.258818E-7
         4257.472     6.264608E-7
         4261.529     6.270371E-7
          4265.59     6.276083E-7
         4269.653     6.281800E-7
         4273.719     6.287518E-7
         4277.789     6.293241E-7
         4281.863     6.298931E-7
         4285.941     6.304577E-7
         4290.025     6.310233E-7
         4294.111     6.315877E-7
         4298.203     6.321533E-7
         4302.294     6.327141E-7
         4306.394     6.332724E-7
         4310.496     6.338311E-7
         4314.601     6.343895E-7
         4318.712     6.349489E-7
         4322.825     6.355078E-7
         4326.945     6.360677E-7
         4331.063     6.366271E-7
          4335.19     6.371869E-7
         4339.319     6.377472E-7
         4343.452     6.383006E-7
         4347.588     6.388532E-7
         4351.731     6.394031E-7
         4355.878     6.399487E-7
         4360.024     6.404941E-7
         4364.179     6.410478E-7
         4368.336     6.416019E-7
         4372.496     6.421513E-7
          4376.66     6.426980E-7
         4380.831     6.432454E-7
         4385.001     6.437920E-7
          4389.18     6.443404E-7
         4393.362     6.448815E-7
         4397.546     6.454214E-7
         4401.734     6.459649E-7
         4405.926     6.465134E-7
         4410.125     6.470628E-7
         4414.323     6.476031E-7
         4418.527     6.481447E-7
         4422.737     6.486868E-7
         4426.952     6.492295E-7
         4431.168     6.497698E-7
         4435.388     6.503041E-7
         4439.615     6.508391E-7
         4443.841     6.513811E-7
         4448.073     6.519248E-7
         4452.312     6.524643E-7
         4456.554     6.530004E-7
         4460.799     6.535368E-7
         4465.047     6.540732E-7
           4469.3     6.546105E-7
         4473.556     6.551477E-7
         4477.816     6.556855E-7
         4482.083     6.562239E-7
         4486.355     6.567627E-7
         4490.627     6.573020E-7
         4494.904     6.578409E-7
         4499.185     6.583805E-7
          4503.47     6.607550E-7
         4507.759     6.635636E-7
         4512.055     6.663731E-7
         4516.354     6.691817E-7
         4520.656     6.719931E-7
         4524.961     6.748141E-7
         4529.271     6.776390E-7
         4533.584     6.804600E-7
         4537.902     6.832832E-7
         4542.226     6.861104E-7
         4546.555     6.889413E-7
         4550.885     6.917754E-7
         4555.219     6.946197E-7
         4559.557     6.974674E-7
           4563.9     7.003106E-7
         4568.246     7.031560E-7
         4572.597     7.060044E-7
         4576.955     7.088578E-7
         4581.316     7.117140E-7
         4585.677     7.145708E-7
         4590.046     7.174338E-7
         4594.418     7.202986E-7
         4598.793     7.231666E-7
         4603.173     7.260378E-7
          4607.56     7.289142E-7
         4611.951     7.317938E-7
          4616.34     7.346733E-7
         4620.739     7.375578E-7
          4625.14     7.404356E-7
         4629.545     7.433168E-7
         4633.954     7.462100E-7
          4638.37     7.491095E-7
          4642.79     7.520122E-7
         4647.209     7.549144E-7
         4651.635     7.578221E-7
         4656.068     7.607340E-7
         4660.502     7.636467E-7
         4664.941     7.665540E-7
         4669.386     7.694661E-7
         4673.831     7.723870E-7
         4678.285     7.753162E-7
          4682.74     7.782464E-7
         4687.202     7.811822E-7
         4691.667     7.841159E-7
         4696.135     7.870458E-7
          4700.61     7.899823E-7
         4705.084     7.929274E-7
         4709.565     7.958782E-7
         4714.053     4.750820E-7
         4718.545     1.166642E-7
         4723.039              0.
         4727.537              0.
          4732.04              0.
         4736.546              0.
         4741.057              0.
         4745.575              0.
         4750.097              0.
         4754.621              0.
         4759.149              0.
         4763.682              0.
         4768.219              0.
          4772.76              0.
         4777.308              0.
         4781.858              0.
         4786.415              0.
         4790.973              0.
         4795.536              0.
         4800.103              0.
         4804.675              0.
         4809.253              0.
         4813.833              0.
         4818.421              0.
          4823.01              0.
         4827.603              0.
         4832.201              0.
         4836.803              0.
         4841.409              0.
         4846.023              0.
         4850.641              0.
         4855.258              0.
         4859.885              0.
         4864.513              0.
         4869.146              0.
         4873.783              0.
         4878.428              0.
         4883.077              0.
         4887.724              0.
         4892.379              0.
         4897.042              0.
         4901.705              0.
         4906.374              0.
         4911.049              0.
         4915.726              0.
         4920.405              0.
         4925.094              0.
         4929.787              0.
         4934.482              0.
         4939.182              0.
         4943.886              0.
         4948.594              0.
         4953.307              0.
         4958.027              0.
         4962.752              0.
         4967.479              0.
         4972.209              0.
         4976.945              0.
         4981.685              0.
         4986.429              0.
         4991.181              0.
         4995.938              0.
         5000.695              0.
         5005.458              0.
         5010.225              0.
         5014.997              0.
         5019.773              0.
         5024.557              0.
         5029.344              0.
         5034.134              0.
         5038.929              0.
         5043.728              0.
         5048.531              0.
         5053.339              0.
         5058.155              0.
         5062.972              0.
         5067.797              0.
         5072.624              0.
         5077.455              0.
          5082.29              0.
          5087.13              0.
         5091.975              0.
         5096.828              0.
         5101.685              0.
         5106.543              0.
         5111.407              0.
         5116.275              0.
         5121.147              0.
         5126.025              0.
          5130.91              0.
         5135.799              0.
          5140.69              0.
         5145.583              0.
         5150.486              0.
         5155.392              0.
         5160.302              0.
         5165.219              0.
         5170.141              0.
         5175.063              0.
         5179.991              0.
         5184.927              0.
         5189.865              0.
         5194.808              0.
         5199.758              0.
         5204.713              0.
         5209.667              0.
         5214.629              0.
         5219.598              0.
         5224.569              0.
         5229.545              0.
         5234.528              0.
         5239.514              0.
         5244.501              0.
         5249.499              0.
         5254.501              0.
         5259.505              0.
         5264.514              0.
         5269.528              0.
         5274.546              0.
          5279.57              0.
         5284.601              0.
         5289.634              0.
         5294.675              0.
         5299.717              0.
         5304.765              0.
         5309.817              0.
         5314.874              0.
         5319.938              0.
         5325.005              0.
          5330.08              0.
         5335.156              0.
         5340.237              0.
         5345.323              0.
         5350.414              0.
         5355.512              0.
         5360.613              0.
         5365.721              0.
         5370.831              0.
         5375.946              0.
         5381.066              0.
         5386.191              0.
         5391.321              0.
         5396.458              0.
         5401.601              0.
         5406.745              0.
         5411.895              0.
         5417.049              0.
         5422.208              0.
         5427.372              0.
         5432.544              0.
         5437.721              0.
         5442.899              0.
          5448.08              0.
         5453.272              0.
         5458.465              0.
         5463.664              0.
         5468.871              0.
         5474.079              0.
         5479.289              0.
         5484.511              0.
         5489.737              0.
         5494.965              0.
         5500.199              0.
         5505.437              0.
         5510.683              0.
         5515.929              0.
         5521.185              0.
         5526.446              0.
         5531.709              0.
         5536.978              0.
         5542.251              0.
         5547.533              0.
         5552.813              0.
         5558.104              0.
         5563.401              0.
         5568.699              0.
         5574.003              0.
         5579.312              0.
         5584.625              0.
         5589.944              0.
         5595.271              0.
         5600.603              0.
         5605.937              0.
         5611.275              0.
          5616.62              0.
         5621.969              0.
         5627.323              0.
         5632.686              0.
          5638.05              0.
         5643.422              0.
         5648.797              0.
         5654.177              0.
         5659.562              0.
         5664.952              0.
         5670.347              0.
          5675.75              0.
         5681.159              0.
          5686.57              0.
         5691.986              0.
         5697.407              0.
         5702.833              0.
         5708.264              0.
         5713.704              0.
         5719.148              0.
         5724.595              0.
         5730.044              0.
         5735.504              0.
         5740.967              0.
         5746.435              0.
         5751.911              0.
         5757.392              0.
         5762.875              0.
          5768.36              0.
         5773.857              0.
         5779.356              0.
          5784.86              0.
         5790.373              0.
         5795.891              0.
         5801.411              0.
         5806.933              0.
         5812.466              0.
         5818.002              0.
         5823.542              0.
         5829.089              0.
         5834.644              0.
         5840.197              0.
         5845.763              0.
         5851.333              0.
         5856.906              0.
         5862.484              0.
         5868.067              0.
         5873.659              0.
          5879.25              0.
         5884.853              0.
         5890.457              0.
          5896.07              0.
         5901.686              0.
         5907.306              0.
         5912.936              0.
         5918.563              0.
         5924.204              0.
         5929.846              0.
         5935.497              0.
         5941.149              0.
         5946.808              0.
         5952.471              0.
          5958.14              0.
         5963.814              0.
         5969.498              0.
         5975.187              0.
         5980.877              0.
         5986.573              0.
         5992.274              0.
         5997.981              0.
         6003.694              0.
         6009.415              0.
         6015.142              0.
          6020.87              0.
         6026.604              0.
         6032.344              0.
         6038.089              0.
          6043.84              0.
         6049.599              0.
         6055.364              0.
         6061.131              0.
           6066.9              0.
         6072.682              0.
         6078.465              0.
         6084.254              0.
         6090.052              0.
         6095.852              0.
         6101.661              0.
         6107.469              0.
         6113.289              0.
         6119.111              0.
         6124.938              0.
         6130.775              0.
         6136.614              0.
         6142.462              0.
         6148.309              0.
         6154.164              0.
         6160.029              0.
         6165.896              0.
         6171.771              0.
         6177.649              0.
         6183.529              0.
         6189.421              0.
         6195.316              0.
          6201.22              0.
         6207.126              0.
         6213.038              0.
         6218.958              0.
         6224.877              0.
         6230.809              0.
         6236.743              0.
         6242.687              0.
         6248.632              0.
         6254.583              0.
         6260.543              0.
         6266.502              0.
         6272.474              0.
         6278.448              0.
         6284.431              0.
         6290.416              0.
         6296.407              0.
         6302.403              0.
         6308.406              0.
         6314.417              0.
         6320.431              0.
         6326.454              0.
         6332.479              0.
          6338.51              0.
         6344.546              0.
         6350.589              0.
         6356.637              0.
         6362.695              0.
         6368.754              0.
         6374.823              0.
         6380.895              0.
         6386.972              0.
         6393.055              0.
         6399.143              0.
         6405.241              0.
         6411.341              0.
         6417.451              0.
         6423.563              0.
         6429.681              0.
         6435.804              0.
         6441.934              0.
         6448.072              0.
         6454.213              0.
         6460.364              0.
         6466.513              0.
         6472.675              0.
         6478.839              0.
          6485.01              0.
         6491.189              0.
         6497.372              0.
         6503.563              0.
         6509.753              0.
         6515.957              0.
         6522.163              0.
         6528.374              0.
         6534.592              0.
         6540.818              0.
         6547.052              0.
         6553.283              0.
         6559.524              0.
         6565.775              0.
         6572.028              0.
         6578.288              0.
         6584.556              0.
         6590.824              0.
         6597.104              0.
         6603.387              0.
          6609.68              0.
         6615.975              0.
         6622.275              0.
         6628.586              0.
         6634.896              0.
         6641.218              0.
         6647.543              0.
         6653.878              0.
         6660.215              0.
         6666.558              0.
         6672.911              0.
         6679.262              0.
         6685.624              0.
         6691.994              0.
         6698.371              0.
         6704.751              0.
         6711.136              0.
         6717.528              0.
         6723.925              0.
         6730.329              0.
         6736.743              0.
         6743.163              0.
         6749.584              0.
         6756.013              0.
         6762.447              0.
         6768.887              0.
         6775.334              0.
         6781.791              0.
          6788.25              0.
         6794.718              0.
         6801.189              0.
         6807.667              0.
          6814.15              0.
          6820.64              0.
         6827.139              0.
         6833.642              0.
         6840.153              0.
         6846.664              0.
         6853.185              0.
         6859.715              0.
         6866.249              0.
         6872.792              0.
         6879.337              0.
         6885.893              0.
         6892.447              0.
         6899.011              0.
         6905.585              0.
         6912.162              0.
         6918.745              0.
         6925.338              0.
         6931.938              0.
         6938.536              0.
         6945.144              0.
         6951.762              0.
         6958.383              0.
          6965.01              0.
         6971.647              0.
         6978.283              0.
         6984.933              0.
         6991.585              0.
         6998.248              0.
         7004.913              0.
         7011.584              0.
         7018.266              0.
         7024.946              0.
          7031.64              0.
         7038.337              0.
         7045.044              0.
         7051.753              0.
         7058.469              0.
         7065.196              0.
          7071.92              0.
         7078.656              0.
         7085.401              0.
         7092.149              0.
         7098.908              0.
         7105.668              0.
         7112.439              0.
         7119.209              0.
          7125.99              0.
          7132.78              0.
         7139.573              0.
         7146.377              0.
         7153.183              0.
         7159.996              0.
         7166.815              0.
          7173.64              0.
         7180.476              0.
         7187.315              0.
         7194.164              0.
         7201.016              0.
         7207.874              0.
         7214.738              0.
         7221.609              0.
         7228.487              0.
         7235.375              0.
          7242.27              0.
         7249.167              0.
         7256.068              0.
         7262.982              0.
         7269.899              0.
         7276.823              0.
         7283.757              0.
         7290.694              0.
         7297.638              0.
         7304.588              0.
         7311.549              0.
         7318.512              0.
         7325.482              0.
         7332.463              0.
         7339.446              0.
         7346.436              0.
         7353.433              0.
          7360.44              0.
          7367.45              0.
         7374.467              0.
         7381.494              0.
         7388.524              0.
         7395.561              0.
         7402.604              0.
         7409.658              0.
         7416.715              0.
         7423.779              0.
         7430.853              0.
         7437.926              0.
          7445.01              0.
         7452.104              0.
         7459.206              0.
          7466.31              0.
          7473.42              0.
         7480.538              0.
         7487.663              0.
         7494.793              0.
         7501.936              0.
          7509.08              0.
         7516.236              0.
         7523.394              0.
          7530.56              0.
         7537.731              0.
          7544.91              0.
           7552.1              0.
         7559.292              0.
         7566.496              0.
         7573.702              0.
         7580.911              0.
         7588.135              0.
         7595.362              0.
           7602.6              0.
          7609.84              0.
         7617.092              0.
         7624.347              0.
         7631.604              0.
         7638.876              0.
         7646.151              0.
         7653.438              0.
         7660.727              0.
         7668.026              0.
          7675.33              0.
         7682.635              0.
         7689.956              0.
          7697.28              0.
         7704.611              0.
         7711.953              0.
         7719.302              0.
         7726.649              0.
         7734.008              0.
         7741.378              0.
          7748.75              0.
          7756.13              0.
         7763.521              0.
         7770.915              0.
         7778.316              0.
         7785.724              0.
         7793.144              0.
         7800.565              0.
         7807.995              0.
         7815.435              0.
         7822.878              0.
         7830.329              0.
         7837.786              0.
         7845.251              0.
         7852.727              0.
         7860.206              0.
         7867.696              0.
         7875.189              0.
         7882.685              0.
         7890.196              0.
         7897.711              0.
         7905.237              0.
         7912.766              0.
         7920.302              0.
         7927.845              0.
         7935.395              0.
         7942.957              0.
         7950.522              0.
         7958.098              0.
         7965.677              0.
         7973.264              0.
         7980.857              0.
         7988.458              0.
          7996.07     5.300438E-7
         8003.686     5.487290E-7
         8011.313              0.
         8018.943              0.
          8026.58              0.
         8034.224              0.
         8041.876              0.
         8049.535              0.
         8057.206              0.
         8064.883              0.
         8072.564     2.117906E-7
         8080.248     8.211111E-7
         8087.948     8.163548E-7
         8095.651     3.529783E-7
         8103.361              0.
         8111.083              0.
         8118.808              0.
         8126.544              0.
         8134.279     3.372042E-7
         8142.031     6.242199E-7
         8149.785     1.672762E-8
         8157.547     5.840602E-7
          8165.32     3.599761E-7
         8173.097              0.
         8180.885              0.
         8188.672              0.
         8196.476              0.
         8204.281     3.193661E-7
         8212.096     5.859733E-7
         8219.921     5.827506E-9
         8227.749              0.
         8235.581              0.
         8243.429     2.478608E-7
         8251.284     8.105500E-7
         8259.143     1.366256E-6
         8267.009     4.242458E-7
         8274.887              0.
         8282.768     1.937393E-7
         8290.651     6.501850E-7
         8298.552     1.000655E-7
         8306.455              0.
          8314.37              0.
         8322.289     1.550553E-7
          8330.22     6.728656E-7
         8338.153     6.683685E-7
          8346.09     2.595883E-7
         8354.043              0.
         8361.999              0.
         8369.968              0.
         8377.938     5.201813E-7
         8385.923     2.664032E-7
         8393.904              0.
         8401.898     1.233311E-7
         8409.905     6.416057E-7
         8417.915     6.458245E-7
         8425.937     2.616438E-7
         8433.961              0.
         8441.993     1.275592E-7
         8450.033     6.358887E-7
         8458.081     1.220480E-7
         8466.141              0.
         8474.204              0.
         8482.274              0.
         8490.357     2.244245E-8
         8498.443     5.284121E-7
         8506.538     6.236500E-7
         8514.639     3.331687E-7
         8522.748     1.701570E-7
          8530.87     6.169379E-7
         8538.994     6.146687E-7
         8547.132     6.123816E-7
         8555.267     6.100813E-7
          8563.42     3.999117E-7
         8571.575     9.536651E-8
         8579.738     5.872918E-7
         8587.915     6.007058E-7
         8596.094     5.983213E-7
         8604.285     3.405582E-7
         8612.475              0.
         8620.682     4.028944E-8
         8628.893     5.234290E-7
          8637.11     5.861445E-7
         8645.341     2.719364E-7
         8653.574              0.
         8661.821     1.053625E-7
         8670.065     5.721138E-7
         8678.327     9.589442E-8
         8686.593              0.
         8694.865     2.763001E-7
         8703.151     5.652143E-7
         8711.439     5.625070E-7
         8719.736     5.597824E-7
         8728.041     5.570411E-7
         8736.354     9.064474E-7
         8744.679     8.449787E-7
         8753.007     3.837250E-7
         8761.348     7.356905E-8
         8769.692     5.263712E-7
         8778.039     1.059368E-7
         8786.404     3.441498E-7
         8794.772     2.794094E-7
         8803.153              0.
         8811.537     8.126468E-8
         8819.929     5.220065E-7
         8828.334     5.228047E-7
         8836.737     1.696081E-7
         8845.157     2.665541E-7
         8853.582     3.297900E-7
         8862.019     1.031145E-7
         8870.459     5.077958E-7
         8878.906     5.047410E-7
         8887.367     5.016661E-7
         8895.827     2.080484E-7
         8904.304              0.
         8912.784              0.
         8921.277              0.
         8929.774              0.
         8938.278     3.997111E-7
         8946.791     4.796390E-7
         8955.313     4.763731E-7
         8963.846     4.730608E-7
         8972.383     4.697322E-7
         8980.933     4.663845E-7
         8989.486     4.630202E-7
         8998.048     4.596383E-7
         9006.617     1.544080E-7
         9015.195              0.
         9023.786     1.704293E-7
          9032.38     5.533344E-7
         9040.982     8.439379E-7
         9049.598     4.582784E-7
         9058.217     4.373236E-7
         9066.844     4.340771E-7
         9075.479     4.308133E-7
         9084.122     2.513004E-7
         9092.778     1.178653E-7
         9101.438     4.209161E-7
         9110.111     4.222298E-7
         9118.782     7.780202E-7
         9127.472     2.077580E-7
         9136.165     2.512103E-7
         9144.866     4.040716E-7
          9153.58     4.006483E-7
         9162.298     3.972085E-7
         9171.029     3.937490E-7
         9179.759     3.902755E-7
         9188.506     5.779041E-8
         9197.257     2.781316E-7
         9206.017     3.797383E-7
         9214.789     1.960294E-7
         9223.565     1.328557E-7
         9232.354     2.821460E-7
         9241.143     8.350725E-8
         9249.943     7.195250E-7
         9258.758     8.897048E-8
         9267.576     2.685088E-7
         9276.407     3.506851E-7
         9285.242     5.288158E-7
          9294.08     5.463458E-7
         9302.937     2.397365E-7
         9311.797     6.030426E-8
          9320.67     3.095626E-7
         9329.547     1.486056E-8
         9338.438              0.
         9347.331              0.
         9356.229              0.
         9365.145              0.
         9374.063     1.253660E-7
         9382.996     3.045748E-7
         9391.933     3.006138E-7
         9400.877     2.706213E-7
         9409.836     4.801032E-9
         9418.792              0.
         9427.768     2.210517E-7
         9436.746     2.805284E-7
         9445.733     1.179525E-7
         9454.735     1.289723E-7
         9463.739     2.682497E-7
         9472.753     2.641194E-7
         9481.774     2.138407E-7
         9490.805     2.058404E-8
         9499.849     2.478028E-7
         9508.896     2.483047E-7
         9517.957     2.450163E-7
         9527.022     2.417339E-7
         9536.096     2.384565E-7
         9545.178     2.351838E-7
         9554.269     1.329213E-7
         9563.373              0.
          9572.48     5.590807E-8
         9581.603     1.865397E-7
         9590.729              0.
         9599.862              0.
         9609.005              0.
         9618.156     1.706099E-7
         9627.321     2.059479E-7
          9636.49     7.115206E-8
         9645.674              0.
         9654.854     9.529280E-8
         9664.055     1.147985E-7
         9673.259              0.
         9682.472              0.
         9691.698              0.
         9700.929              0.
         9710.173              0.
         9719.415              0.
         9728.672     1.481226E-7
         9737.942     3.449529E-8
         9747.217              0.
         9756.506     1.049322E-7
         9765.797     6.643950E-8
         9775.098     7.894384E-8
         9784.408     8.480681E-8
         9793.727              0.
         9803.059              0.
         9812.396              0.
          9821.74              0.
           9831.1              0.
         9840.463              0.
         9849.835              0.
         9859.216     1.164787E-7
          9868.61     1.713047E-8
          9878.01              0.
         9887.417     8.682932E-8
         9896.839     1.139791E-7
          9906.26     4.148044E-8
         9915.699              0.
         9925.143              0.
         9934.601              0.
         9944.063              0.
         9953.533     3.380016E-8
         9963.018     6.468974E-8
         9972.501              0.
         9982.004     1.736293E-8
         9991.511     7.102172E-8
         10001.03     8.342418E-9
         10010.56     7.469619E-8
         10020.09              0.
         10029.63              0.
         10039.19              0.
         10048.75              0.
         10058.32              0.
         10067.91              0.
          10077.5              0.
         10087.09              0.
          10096.7     4.299248E-8
         10106.32     2.304796E-8
         10115.94     3.623371E-8
         10125.58     2.628350E-8
         10135.23              0.
         10144.88     2.749359E-8
         10154.54     5.477352E-8
         10164.22     5.325305E-8
          10173.9     5.174535E-8
         10183.59     3.223106E-8
         10193.28     1.601658E-8
           10203.     3.309506E-8
         10212.72              0.
         10222.45              0.
         10232.18     9.378781E-9
         10241.93     4.155390E-8
         10251.68     3.339882E-8
         10261.45              0.
         10271.23              0.
         10281.01              0.
         10290.79              0.
          10300.6              0.
         10310.41              0.
         10320.23              0.
         10330.06              0.
         10339.91              0.
         10349.76              0.
          10359.6              0.
         10369.48              0.
         10379.36              0.
         10389.24              0.
         10399.14              0.
         10409.04              0.
         10418.97     1.645765E-8
         10428.88     1.929658E-9
         10438.82              0.
         10448.76              0.
         10458.71              0.
         10468.68              0.
         10478.65              0.
         10488.63              0.
         10498.61     8.170955E-9
         10508.61     1.269068E-9
         10518.63     7.713325E-9
         10528.65     8.720529E-9
         10538.68     1.125018E-9
         10548.71              0.
         10558.76     7.088250E-9
         10568.82    9.323861E-10
         10578.88              0.
         10588.97              0.
         10599.05              0.
         10609.15              0.
         10619.25              0.
         10629.37              0.
         10639.49              0.
         10649.62     6.074809E-9
         10659.78    1.370115E-10
         10669.93              0.
         10680.09              0.
         10690.26              0.
         10700.44              0.
         10710.63    3.317743E-10
         10720.83     4.631453E-9
         10731.06    5.163370E-10
         10741.28     4.713216E-9
         10751.51     3.861499E-9
         10761.75              0.
           10772.              0.
         10782.25              0.
         10792.52              0.
          10802.8              0.
         10813.09              0.
          10823.4              0.
         10833.71              0.
         10844.03              0.
         10854.37              0.
         10864.69     1.343790E-9
         10875.04     1.351686E-9
         10885.41              0.
         10895.78              0.
         10906.15              0.
         10916.54              0.
         10926.94              0.
         10937.34              0.
         10947.76              0.
          10958.2     1.390507E-9
         10968.63    2.156593E-10
         10979.08     1.328549E-9
         10989.54     1.350182E-9
           11000.              0.
