#  Table wf4f675wsys.tab  Mon 12:22:52 02-Jun-97

#      WAVELENGTH      THROUGHPUT
#       angstroms                

            1850.     4.728102E-6
         1851.651     3.974712E-6
         1853.301     3.214560E-6
         1854.956     2.445404E-6
         1856.611     1.669698E-6
         1858.267     8.863277E-7
         1859.925     9.478401E-8
         1861.584     8.591407E-8
         1863.246     1.144193E-7
         1864.909     1.432036E-7
         1866.572     1.722473E-7
         1868.237     2.015726E-7
         1869.904     2.311963E-7
         1871.573     4.628360E-7
         1873.242     7.089865E-7
         1874.913     9.575319E-7
         1876.585     1.208502E-6
          1878.26     1.462096E-6
         1879.937     1.717463E-6
         1881.613     1.870627E-6
         1883.292     2.020973E-6
         1884.973     2.172639E-6
         1886.654     2.325452E-6
         1888.338     2.479607E-6
         1890.023     2.630535E-6
         1891.709     2.457454E-6
         1893.396     2.282806E-6
         1895.086     2.106496E-6
         1896.775     1.928840E-6
         1898.469     1.749277E-6
         1900.163     1.569164E-6
         1901.857     1.396499E-6
         1903.555     1.222079E-6
         1905.254     1.046109E-6
         1906.953     8.687118E-7
         1908.655     6.896535E-7
         1910.357     5.428482E-7
         1912.061     5.222916E-7
         1913.768     5.015307E-7
         1915.476     4.805751E-7
         1917.184     4.594377E-7
         1918.894     4.381045E-7
         1920.606     4.037884E-7
          1922.32     3.456696E-7
         1924.035     2.870379E-7
         1925.752     2.279214E-7
          1927.47     1.682552E-7
         1929.189     1.081013E-7
          1930.91     1.066760E-7
         1932.634     1.582880E-7
         1934.358     2.103427E-7
         1936.084     2.628082E-7
         1937.811     3.157262E-7
          1939.54     3.691250E-7
          1941.27     3.361459E-7
         1943.003     2.712466E-7
         1944.737     2.057744E-7
          1946.47     1.398114E-7
         1948.207     7.319315E-8
         1949.947     5.958616E-9
         1951.685     1.140070E-7
         1953.427     2.286777E-7
         1955.171     3.443323E-7
         1956.913     4.608346E-7
          1958.66     5.784734E-7
         1960.408     6.435474E-7
         1962.157     5.324709E-7
         1963.908     4.203458E-7
         1965.658     3.073811E-7
         1967.413     1.932979E-7
         1969.169     7.821841E-8
         1970.925     2.172513E-8
         1972.684     1.846432E-8
         1974.444     1.517686E-8
         1976.205     1.186063E-8
         1977.969     8.511594E-9
         1979.734     5.137534E-9
           1981.5     6.593709E-9
         1983.268     8.930498E-9
         1985.037     1.128579E-8
         1986.809     1.366227E-8
         1988.581     1.605719E-8
         1990.355     1.750680E-8
         1992.131     1.509143E-8
         1993.908     1.265504E-8
         1995.688     1.019451E-8
         1997.467     7.717381E-9
          1999.25     5.215966E-9
         2001.034     1.055917E-8
         2002.818     2.167822E-8
         2004.606     3.292742E-8
         2006.396     4.428062E-8
         2008.184     5.572959E-8
         2009.976     6.730375E-8
         2011.769     1.028221E-7
         2013.565     1.390278E-7
         2015.362     1.755878E-7
         2017.158     2.124562E-7
         2018.958     2.497248E-7
          2020.76     2.523698E-7
         2022.563     2.068927E-7
         2024.368     1.609351E-7
         2026.173     1.145573E-7
         2027.982     6.769417E-8
         2029.791     2.040364E-8
         2031.602     1.497848E-8
         2033.414     1.506354E-8
         2035.228     1.514896E-8
         2037.044     1.523481E-8
         2038.861     1.532096E-8
         2040.681     2.299913E-8
         2042.502     4.351219E-8
         2044.324     6.420780E-8
         2046.147     8.509642E-8
         2047.974     1.061945E-7
           2049.8     1.274762E-7
          2051.63     1.231803E-7
         2053.461     1.156638E-7
         2055.291     1.080824E-7
         2057.125     1.004187E-7
         2058.961     9.268010E-8
         2060.798     8.190575E-8
         2062.637     6.713916E-8
         2064.477     5.224437E-8
         2066.318     3.721292E-8
         2068.164     2.202402E-8
         2070.007     6.798619E-9
         2071.855     1.105796E-8
         2073.704     1.535501E-8
         2075.553     1.968764E-8
         2077.405     2.405826E-8
         2079.259     2.847114E-8
         2081.113     2.920044E-8
         2082.971     2.744628E-8
         2084.829     2.567712E-8
         2086.688     2.389197E-8
          2088.55     2.208936E-8
         2090.414     2.943393E-8
         2092.279     6.903679E-8
         2094.145     1.089677E-7
         2096.014     1.492701E-7
         2097.885     1.899092E-7
         2099.756     2.308648E-7
          2101.63     1.994860E-7
         2103.503     1.569506E-7
         2105.381     1.140126E-7
          2107.26     7.070923E-8
         2109.139     2.707264E-8
         2111.022     9.732416E-9
         2112.906     1.482463E-8
         2114.789     1.995091E-8
         2116.677     2.512475E-8
         2118.564     3.033630E-8
         2120.455     3.321436E-8
         2122.348     2.858445E-8
         2124.241     2.392179E-8
         2126.135     1.922206E-8
         2128.033     1.448324E-8
         2129.932     9.706990E-9
         2131.832     1.042166E-8
         2133.734     1.134631E-8
         2135.637     1.227750E-8
         2137.544     1.321658E-8
          2139.45     1.416436E-8
         2141.359     1.729567E-8
          2143.27     2.133683E-8
         2145.182     2.540635E-8
         2147.096     2.950855E-8
         2149.011     3.363885E-8
         2150.929     3.773503E-8
         2152.848     4.178584E-8
         2154.768     4.586529E-8
         2156.692     4.997877E-8
         2158.615     5.411331E-8
         2160.541     5.462120E-8
         2162.469     4.572495E-8
         2164.397     3.677886E-8
          2166.33     2.775426E-8
         2168.263     1.867246E-8
         2170.196     1.038253E-8
         2172.133     9.514905E-9
          2174.07     8.642335E-9
         2176.011     7.763477E-9
         2177.953     6.878966E-9
         2179.895     5.989450E-9
          2181.84     7.090049E-9
         2183.787     8.311816E-9
         2185.735     9.540051E-9
         2187.686     1.077602E-8
         2189.637     1.201835E-8
          2191.59     1.883303E-8
         2193.546     2.696468E-8
         2195.503     3.513857E-8
         2197.462     4.335175E-8
         2199.423     5.161463E-8
         2201.385     4.760613E-8
         2203.348     3.834092E-8
         2205.315     2.891207E-8
         2207.283     1.932563E-8
         2209.252     9.586859E-9
         2211.222     7.753255E-9
         2213.196     1.087014E-8
          2215.17     1.403292E-8
         2217.147     1.724652E-8
         2219.125     2.050885E-8
         2221.104     2.788892E-8
         2223.086     3.864728E-8
         2225.071     4.957236E-8
         2227.055     6.063778E-8
         2229.042     7.187823E-8
         2231.031     7.017371E-8
         2233.021     5.616867E-8
         2235.015     4.193742E-8
         2237.008     2.751378E-8
         2239.003     1.287768E-8
         2241.002     7.038352E-9
         2242.999     1.014958E-8
         2245.002     1.330938E-8
         2247.005     1.650877E-8
         2249.009     1.975177E-8
         2251.016     2.216910E-8
         2253.024     2.376169E-8
         2255.033     2.537404E-8
         2257.046     2.700742E-8
         2259.061     2.866075E-8
         2261.075     2.697996E-8
         2263.092     2.232638E-8
         2265.112     1.760774E-8
         2267.134     1.282655E-8
         2269.156     7.986050E-9
         2271.181     6.641710E-9
         2273.207     7.842281E-9
         2275.234     9.057482E-9
         2277.266     1.028887E-8
         2279.296     1.153249E-8
          2281.33     1.411319E-8
         2283.366     1.742746E-8
         2285.402     2.077710E-8
         2287.441     2.417032E-8
         2289.483     2.760287E-8
         2291.525     3.477764E-8
          2293.57     4.330503E-8
         2295.615     5.191952E-8
         2297.663     6.065969E-8
         2299.715     6.951369E-8
         2301.765     7.795489E-8
          2303.82     8.642493E-8
         2305.876     9.499256E-8
         2307.932     1.036530E-7
         2309.992     1.124181E-7
         2312.051     1.280425E-7
         2314.116     1.439003E-7
          2316.18     1.599199E-7
         2318.246     1.761171E-7
         2320.315     1.866197E-7
         2322.385     1.642505E-7
         2324.457     1.416007E-7
         2326.531     1.186985E-7
         2328.606     9.552672E-8
         2330.685     7.512880E-8
         2332.764     6.080462E-8
         2334.845     4.631440E-8
         2336.927     3.166078E-8
         2339.012     1.684135E-8
         2341.101     9.501082E-9
         2343.188     9.002022E-9
         2345.279     8.497030E-9
         2347.372     7.985832E-9
         2349.467     7.468761E-9
         2351.562     9.413218E-9
         2353.661     1.222700E-8
         2355.759     1.506636E-8
         2357.862     1.793903E-8
         2359.966     2.084118E-8
         2362.071     1.820186E-8
         2364.179     1.544031E-8
         2366.288     1.265142E-8
         2368.398     9.833173E-9
         2370.512     8.247198E-9
         2372.628     1.061935E-8
         2374.744     1.301342E-8
         2376.863     1.543255E-8
         2378.983     1.787405E-8
         2381.105     2.114608E-8
          2383.23     2.519871E-8
         2385.357     2.928980E-8
         2387.485     3.341761E-8
         2389.615     3.758412E-8
         2391.747     4.318003E-8
         2393.881     4.913154E-8
         2396.017     5.514156E-8
         2398.154     6.120271E-8
         2400.293     6.508410E-8
         2402.435     5.484728E-8
          2404.58     4.451299E-8
         2406.724     3.408914E-8
         2408.872     2.356234E-8
         2411.022     1.712627E-8
         2413.171     1.527673E-8
         2415.326     1.340675E-8
         2417.479     1.152325E-8
         2419.637     9.620007E-9
         2421.796     9.576155E-9
         2423.957     9.912484E-9
          2426.12     1.025168E-8
         2428.284     1.059332E-8
         2430.451     1.458878E-8
         2432.619     3.256924E-8
         2434.789     5.070008E-8
         2436.962     6.899623E-8
         2439.136     8.744401E-8
         2441.312     8.411220E-8
          2443.49     6.625842E-8
          2445.67     4.824404E-8
         2447.853     3.007646E-8
         2450.036     1.206700E-8
         2452.222     1.142301E-8
         2454.409     1.077348E-8
           2456.6     1.011797E-8
         2458.792     9.456950E-9
         2460.985     9.105139E-9
          2463.18     9.137575E-9
         2465.379     9.170090E-9
         2467.579     9.202657E-9
         2469.778     9.235242E-9
         2471.983     9.267692E-9
          2474.19     9.300192E-9
         2476.396     9.332691E-9
         2478.606     9.365285E-9
         2480.817     9.767759E-9
         2483.029     1.080725E-8
         2485.247     1.185604E-8
         2487.462     1.291078E-8
         2489.682     1.397476E-8
         2491.904     1.425973E-8
         2494.125     1.441446E-8
         2496.353     1.457038E-8
         2498.579     1.472703E-8
         2500.808     1.786710E-8
          2503.04     2.630142E-8
         2505.272     3.479465E-8
         2507.509     4.335909E-8
         2509.745     5.198189E-8
         2511.985     4.973161E-8
         2514.225     4.605255E-8
         2516.468     4.234391E-8
         2518.714     3.860392E-8
         2520.962     3.395320E-8
          2523.21     2.808718E-8
         2525.462     2.217183E-8
         2527.715     1.621471E-8
         2529.971     1.020787E-8
         2532.229     1.787761E-8
         2534.486     2.577755E-8
         2536.748     3.374692E-8
          2539.01     4.170350E-8
         2541.277     4.140095E-8
         2543.545     3.465617E-8
         2545.813     2.788795E-8
         2548.084     2.109276E-8
         2550.358     1.522592E-8
         2552.635     1.447713E-8
         2554.911     1.372576E-8
         2557.191     1.297071E-8
         2559.471     1.221344E-8
         2561.755     1.176329E-8
         2564.042     1.140519E-8
         2566.329     1.104574E-8
         2568.619     1.068455E-8
         2570.908     1.047258E-8
         2573.205     1.048875E-8
           2575.5     1.050484E-8
         2577.797     1.052086E-8
         2580.097     1.077277E-8
         2582.399     1.637177E-8
         2584.704     2.199691E-8
          2587.01     2.764336E-8
         2589.318     3.330922E-8
         2591.629     3.965854E-8
          2593.94     4.630633E-8
         2596.254     5.297917E-8
         2598.573     5.968685E-8
         2600.889     6.873734E-8
          2603.21     8.158885E-8
         2605.532     9.448254E-8
         2607.856     1.074276E-7
         2610.185     1.182249E-7
         2612.512     1.033410E-7
         2614.843     8.837828E-8
         2617.177     7.335269E-8
          2619.51     5.828336E-8
         2621.849     4.783394E-8
         2624.188     3.860170E-8
         2626.528     2.933164E-8
         2628.873     2.001709E-8
         2631.217     1.497592E-8
         2633.566     1.391054E-8
         2635.916     1.284063E-8
         2638.267     1.176677E-8
          2640.62     1.402261E-8
         2642.977     2.563158E-8
         2645.334     3.728138E-8
         2647.695     4.898508E-8
         2650.057     6.028200E-8
         2652.422     5.345760E-8
         2654.788     4.660881E-8
         2657.157     3.972657E-8
         2659.526     3.282377E-8
         2661.899     2.897943E-8
         2664.275     2.589324E-8
         2666.652     2.279574E-8
         2669.031     1.968349E-8
         2671.412     2.392904E-8
         2673.796     3.326458E-8
         2676.181     4.263157E-8
          2678.57     5.204231E-8
          2680.96     7.011813E-8
          2683.35     1.011145E-7
         2685.746     1.322916E-7
          2688.14     1.635378E-7
          2690.54     1.794293E-7
         2692.941     1.417664E-7
         2695.343     1.039664E-7
         2697.748     6.599164E-8
         2700.153     3.010209E-8
         2702.563     2.640463E-8
         2704.975     2.268051E-8
         2707.387     1.893158E-8
         2709.804     1.515283E-8
         2712.222     1.940698E-8
         2714.642     2.440199E-8
         2717.063     2.943166E-8
         2719.486     3.449711E-8
         2721.915     4.123665E-8
         2724.343     4.845466E-8
         2726.772     5.572315E-8
         2729.205     6.304227E-8
          2731.64     6.606942E-8
         2734.078     6.700046E-8
         2736.517     6.793631E-8
         2738.958     6.887741E-8
         2741.402     6.992126E-8
         2743.849     7.104337E-8
         2746.296     7.217128E-8
         2748.747     7.330653E-8
         2751.198     6.652085E-8
         2753.653     5.140024E-8
         2756.111     3.624388E-8
         2758.569     2.106079E-8
         2761.031     1.363636E-8
         2763.495     1.704593E-8
         2765.958     2.045939E-8
         2768.427     2.388485E-8
         2770.898     2.594305E-8
         2773.369     2.559269E-8
         2775.844     2.524129E-8
          2778.32     2.488926E-8
         2780.799     2.514495E-8
          2783.28     2.668406E-8
         2785.764     2.822681E-8
         2788.249     2.977200E-8
         2790.736     3.171925E-8
         2793.227     3.462178E-8
          2795.72     3.753079E-8
         2798.213     4.044455E-8
         2800.709     4.040136E-8
         2803.209     3.287701E-8
         2805.709     2.534050E-8
         2808.213     1.778224E-8
         2810.718     1.960144E-8
         2813.226     4.485035E-8
         2815.736     7.013873E-8
         2818.247     9.548143E-8
         2820.764     1.128500E-7
         2823.278     1.117337E-7
         2825.798     1.106135E-7
          2828.32     1.094909E-7
         2830.843     1.156944E-7
         2833.369     1.365514E-7
         2835.898     1.574536E-7
         2838.426     1.783727E-7
         2840.959     1.757648E-7
         2843.495     1.343716E-7
         2846.031     9.291884E-8
         2848.571     5.135051E-8
         2851.112     2.751034E-8
         2853.655     2.651140E-8
         2856.202     2.550987E-8
         2858.751     2.450633E-8
         2861.301     2.252684E-8
         2863.853     1.960602E-8
         2866.407     1.667920E-8
         2868.965     1.374469E-8
         2871.526     1.845750E-8
         2874.087     2.836920E-8
         2876.652     3.830736E-8
         2879.218     4.825780E-8
         2881.788     6.037783E-8
         2884.358     7.345110E-8
         2886.931     8.655034E-8
         2889.507     9.968174E-8
         2892.084     8.355480E-8
         2894.666     6.045247E-8
         2897.248     3.731843E-8
         2899.832     1.414386E-8
         2902.421     2.651792E-8
          2905.01     4.132485E-8
         2907.601     5.610655E-8
         2910.198     6.893737E-8
          2912.79     5.820605E-8
         2915.392     4.746706E-8
         2917.992     3.676093E-8
         2920.594     2.869871E-8
         2923.203     2.951164E-8
         2925.807     3.032094E-8
          2928.42     3.113049E-8
         2931.033     2.962052E-8
         2933.646     2.457664E-8
         2936.266     1.953328E-8
         2938.885     1.450600E-8
         2941.506     1.235934E-8
         2944.131     1.234163E-8
         2946.757     1.232390E-8
         2949.387     1.230612E-8
         2952.018     1.318841E-8
         2954.653     1.434255E-8
          2957.29     1.549426E-8
         2959.926     1.664214E-8
         2962.567     1.931629E-8
          2965.21     2.202744E-8
         2967.856     2.473410E-8
         2970.505     3.663618E-8
         2973.155     8.750159E-8
         2975.808     1.382909E-7
         2978.461     1.889055E-7
         2981.121     2.048148E-7
          2983.78     1.731103E-7
         2986.441     1.414744E-7
         2989.104     1.099102E-7
         2991.772     8.945399E-8
         2994.442     7.463066E-8
         2997.113     5.984825E-8
         2999.788     4.508936E-8
         3002.464     3.619670E-8
         3005.142     2.782407E-8
         3007.826     1.945995E-8
         3010.507     1.324863E-8
         3013.194     1.613288E-8
         3015.883     1.901023E-8
         3018.573     2.187883E-8
         3021.267     2.306868E-8
          3023.96     2.237231E-8
          3026.66     2.167621E-8
          3029.36     2.098245E-8
         3032.062     2.537081E-8
          3034.77     3.133103E-8
         3037.475     3.726550E-8
         3040.186     4.220188E-8
         3042.897     3.370645E-8
         3045.612     2.523142E-8
         3048.332     1.676706E-8
         3051.051     1.240458E-8
         3053.772     1.451123E-8
         3056.497     1.661382E-8
         3059.222     1.870798E-8
         3061.954     3.786331E-8
         3064.685     6.372422E-8
         3067.418     8.951857E-8
         3070.156     1.122191E-7
         3072.896     8.462494E-8
         3075.637     5.711886E-8
          3078.38     2.968892E-8
         3081.126     1.631556E-8
         3083.877     2.308688E-8
         3086.628     2.983155E-8
         3089.381     3.655670E-8
         3092.137     5.209081E-8
         3094.895     7.013540E-8
         3097.659     8.815088E-8
         3100.422     1.013178E-7
         3103.187     8.790786E-8
         3105.955     7.444628E-8
         3108.729     6.091616E-8
         3111.501     8.354548E-8
         3114.277     1.369938E-7
         3117.056     1.906794E-7
         3119.836     2.445320E-7
         3122.621     2.244790E-7
         3125.406     1.997154E-7
         3128.195     1.748433E-7
         3130.985     1.443211E-7
         3133.778     1.034538E-7
         3136.575     6.240541E-8
         3139.373     2.122549E-8
         3142.175     2.178636E-8
         3144.979     3.447409E-8
         3147.784     4.720364E-8
         3150.592     5.465618E-8
         3153.405     4.212345E-8
         3156.218     2.955917E-8
         3159.035     1.693817E-8
         3161.851     1.911114E-8
         3164.674     2.906354E-8
         3167.497     3.904170E-8
         3170.322     5.013744E-8
         3173.152     6.969215E-8
         3175.982     8.931065E-8
         3178.816     1.090151E-7
         3181.652     1.011324E-7
          3184.49     7.336265E-8
         3187.333     4.544836E-8
         3190.175     2.145254E-8
         3193.022     5.822997E-8
          3195.87     9.512781E-8
         3198.722     1.321875E-7
         3201.577     1.308198E-7
         3204.433     9.813743E-8
         3207.291     6.533081E-8
         3210.151     3.428197E-8
         3213.018     3.689032E-8
         3215.884     3.950513E-8
         3218.752     4.213001E-8
         3221.623     3.939355E-8
         3224.499     3.250433E-8
         3227.376     2.558824E-8
         3230.255     1.988936E-8
         3233.136     2.694365E-8
          3236.02     3.402524E-8
         3238.908     4.113843E-8
         3241.799     3.815310E-8
          3244.69     2.900169E-8
         3247.584     1.981371E-8
         3250.485     1.448966E-8
         3253.384     2.866263E-8
         3256.286     4.289057E-8
         3259.192     5.718203E-8
         3262.097     5.859118E-8
          3265.01     5.500828E-8
         3267.922     5.141608E-8
         3270.837     5.103794E-8
         3273.758     5.869872E-8
         3276.675     6.636931E-8
         3279.601     7.408900E-8
         3282.526     5.934897E-8
         3285.454     4.098888E-8
         3288.388     2.253567E-8
         3291.319     1.238194E-8
         3294.257     1.240047E-8
         3297.195     1.241901E-8
         3300.137     1.250286E-8
         3303.083     1.392203E-8
         3306.029     1.534589E-8
         3308.979     1.677597E-8
         3311.931     2.310396E-8
         3314.885     3.204900E-8
         3317.844     4.103415E-8
         3320.803     4.797100E-8
         3323.767     4.934094E-8
         3326.731     5.071530E-8
           3329.7     5.209576E-8
          3332.67     4.428627E-8
         3335.643     3.541113E-8
         3338.622     2.649066E-8
         3341.599     5.369406E-8
          3344.58     1.122392E-7
         3347.563     1.710101E-7
         3350.551     2.081228E-7
         3353.541     1.481533E-7
         3356.532     8.798085E-8
         3359.528     2.753604E-8
         3362.524     2.091770E-8
         3365.525     2.440554E-8
         3368.527     2.790510E-8
         3371.532     2.724296E-8
         3374.541     2.255116E-8
         3377.551     1.784330E-8
         3380.565     1.793650E-8
         3383.582     3.897915E-8
         3386.598     6.007978E-8
         3389.623     8.130360E-8
         3392.646     1.076014E-7
         3395.672     1.347233E-7
         3398.705     1.619861E-7
         3401.732     1.459700E-7
          3404.77     9.729914E-8
         3407.807     4.849161E-8
         3410.847     1.576980E-8
         3413.893     2.519974E-8
         3416.938     3.465608E-8
         3419.985     4.415099E-8
         3423.038     7.992345E-8
         3426.089     1.159237E-7
         3429.148     1.521354E-7
         3432.207     2.094761E-7
         3435.268     2.751820E-7
         3438.334     3.411959E-7
         3441.401     3.292363E-7
         3444.473     2.239547E-7
         3447.545     1.183195E-7
         3450.622     3.253584E-8
         3453.701     2.701739E-8
         3456.782     2.148017E-8
         3459.865     1.591976E-8
         3462.951     1.085412E-7
         3466.042     2.061001E-7
         3469.135     3.040584E-7
         3472.229     2.764030E-7
         3475.326     1.996288E-7
         3478.426     1.225368E-7
         3481.532     7.536161E-8
         3484.638     5.923007E-8
         3487.746     4.303250E-8
         3490.859     3.521577E-8
         3493.972     4.962342E-8
         3497.091     6.409883E-8
          3500.21     7.636454E-8
         3503.334     5.723420E-8
          3506.46     3.802188E-8
         3509.586     1.875144E-8
          3512.72     7.093521E-8
         3515.852     1.341459E-7
         3518.989     1.976971E-7
          3522.13     2.142255E-7
         3525.271     2.083251E-7
         3528.418     2.023951E-7
         3531.563     1.723194E-7
         3534.717     1.175253E-7
          3537.87     6.256025E-8
         3541.025     3.726479E-8
         3544.188     7.421419E-8
         3547.349     1.112750E-7
         3550.513     1.360868E-7
         3553.679     9.666429E-8
         3556.849     5.706928E-8
         3560.026     1.767042E-8
         3563.201     2.964152E-8
         3566.379     4.166416E-8
         3569.562     5.374780E-8
         3572.746     4.419477E-8
         3575.935     3.112396E-8
         3579.124     1.800455E-8
         3582.316     1.441162E-8
         3585.513     1.443687E-8
         3588.714     1.446217E-8
         3591.915     2.157357E-8
         3595.118     3.348928E-8
         3598.325     4.545854E-8
         3601.538     4.666737E-8
         3604.751     3.607332E-8
         3607.966     2.543274E-8
         3611.184     1.821340E-8
         3614.409     1.693654E-8
         3617.633     1.565558E-8
         3620.859     3.021977E-8
         3624.089     8.863306E-8
         3627.322     1.473035E-7
         3630.561     1.871488E-7
         3633.799     1.354817E-7
          3637.04     8.358308E-8
         3640.286     3.694049E-8
         3643.533     4.729261E-8
         3646.785     5.769629E-8
         3650.038     6.799926E-8
         3653.295     6.628443E-8
         3656.556     6.456145E-8
         3659.815     6.283275E-8
         3663.082     4.811849E-8
         3666.353     3.254820E-8
         3669.621     1.693570E-8
         3672.896     1.514614E-8
         3676.172     1.517342E-8
         3679.451     1.520074E-8
         3682.737     2.598081E-8
         3686.022     3.895696E-8
         3689.309     5.199039E-8
           3692.6     7.500675E-8
         3695.896     1.007830E-7
         3699.194     1.266769E-7
         3702.494     1.049843E-7
         3705.798     6.771805E-8
         3709.101     3.033046E-8
         3712.412     7.146543E-8
         3715.725     1.422116E-7
         3719.039     2.132292E-7
         3722.358     1.956410E-7
         3725.678     1.416659E-7
         3729.004     8.741060E-8
          3732.33     5.826276E-8
         3735.659     3.983857E-8
         3738.995     2.130798E-8
          3742.33     1.634496E-8
         3745.668     1.725471E-8
         3749.009     1.816848E-8
         3752.354     1.784079E-8
         3755.703     1.698539E-8
         3759.053     1.612654E-8
         3762.408     2.465872E-8
         3765.764     3.692573E-8
         3769.125     4.925485E-8
         3772.487     5.096426E-8
         3775.852     4.891756E-8
         3779.222     4.685988E-8
         3782.594     4.068056E-8
         3785.968     3.324064E-8
         3789.345     2.576660E-8
         3792.725     3.002789E-8
         3796.112     3.715221E-8
         3799.498     4.429997E-8
         3802.887     4.434695E-8
         3806.279     4.315047E-8
         3809.676     4.194756E-8
         3813.076     4.865964E-8
         3816.477     5.623412E-8
         3819.881     6.384216E-8
          3823.29     5.459438E-8
           3826.7     4.469881E-8
         3830.116     3.566081E-8
         3833.532     5.253493E-8
         3836.951     6.948374E-8
         3840.378     8.209266E-8
         3843.803     5.887397E-8
         3847.232     3.555200E-8
         3850.663     1.907962E-8
         3854.102     3.165581E-8
          3857.54     4.427303E-8
          3860.98     5.541439E-8
         3864.426     6.275529E-8
         3867.875     7.012868E-8
         3871.325     7.459384E-8
         3874.778     7.435695E-8
         3878.234     7.411870E-8
         3881.695     7.145454E-8
         3885.157     6.624956E-8
         3888.625     6.101791E-8
         3892.094     7.615322E-8
         3895.565     1.047790E-7
         3899.044     1.335674E-7
         3902.521     1.170942E-7
         3906.002     8.330522E-8
         3909.489     4.934819E-8
         3912.975     5.601657E-8
         3916.468     6.974719E-8
         3919.961     8.352793E-8
         3923.457     8.278442E-8
         3926.961     8.187099E-8
         3930.462     8.538273E-8
         3933.969     1.181691E-7
         3937.478     1.510767E-7
         3940.992     1.639604E-7
          3944.51     1.254731E-7
         3948.028     8.684444E-8
          3951.55     6.882689E-8
         3955.074     7.723997E-8
         3958.606     8.569928E-8
         3962.137     8.302810E-8
         3965.671     7.304961E-8
          3969.21     6.302242E-8
          3972.75     1.123231E-7
         3976.296     1.789626E-7
         3979.843     2.458410E-7
         3983.395     2.324694E-7
          3986.95     2.152997E-7
         3990.504     1.946873E-7
         3994.065     1.533607E-7
          3997.63     1.118598E-7
         4001.196     1.052526E-7
         4004.767     1.681461E-7
         4008.339     2.310360E-7
         4011.914     2.722806E-7
         4015.494     2.947272E-7
         4019.078     3.171853E-7
         4022.663     2.990566E-7
         4026.251     2.668568E-7
         4029.844     2.346236E-7
         4033.441     2.320295E-7
         4037.039     2.307781E-7
         4040.639     2.266943E-7
         4044.243     2.094781E-7
         4047.855     1.922326E-7
         4051.465     1.844280E-7
         4055.079     1.904272E-7
         4058.698     1.964321E-7
         4062.316     2.079906E-7
         4065.944     2.227057E-7
          4069.57     2.374077E-7
           4073.2     2.358197E-7
         4076.838     2.320370E-7
         4080.472     2.242209E-7
         4084.114     1.892830E-7
         4087.756     1.543545E-7
         4091.405     1.421770E-7
         4095.056     1.664098E-7
         4098.708     1.906325E-7
         4102.367     1.866780E-7
         4106.026     1.673372E-7
         4109.688     1.479938E-7
         4113.356     1.957192E-7
         4117.025     2.496613E-7
         4120.699     2.910393E-7
         4124.375     2.787683E-7
         4128.056     2.664867E-7
         4131.738     2.485512E-7
         4135.423     2.242799E-7
         4139.116     1.999720E-7
         4142.808     2.295457E-7
         4146.503     2.760906E-7
         4150.201     3.182743E-7
         4153.903     2.845894E-7
         4157.613     2.508654E-7
         4161.321     2.271983E-7
         4165.033     2.216430E-7
         4168.748     2.160871E-7
         4172.466     2.149392E-7
         4176.192     2.160328E-7
         4179.917     2.171250E-7
         4183.645     2.052541E-7
         4187.379     1.930792E-7
         4191.116     1.861017E-7
         4194.854     1.913320E-7
         4198.596     1.965622E-7
         4202.343     2.079485E-7
         4206.094     2.230559E-7
         4209.845     2.381941E-7
         4213.603     2.194903E-7
         4217.358     1.993032E-7
         4221.123     1.726663E-7
          4224.89     1.309498E-7
         4228.658     8.914325E-8
         4232.432     8.995894E-8
         4236.208     1.143944E-7
         4239.988     1.389075E-7
          4243.77     1.428389E-7
         4247.555     1.467163E-7
         4251.348     1.361163E-7
          4255.14     9.920378E-8
         4258.936     6.219381E-8
         4262.734     4.254923E-8
         4266.537     2.966325E-8
         4270.347     1.790794E-8
         4274.155     1.792320E-8
         4277.968     1.793849E-8
         4281.786     1.795368E-8
         4285.605     1.796875E-8
          4289.43     1.798385E-8
         4293.256     1.799892E-8
         4297.085     1.801400E-8
         4300.922     1.802907E-8
         4304.759     1.804396E-8
         4308.598     1.805887E-8
         4312.441     1.807378E-8
          4316.29     1.808870E-8
         4320.142     1.810363E-8
         4323.996     1.811856E-8
         4327.854     1.813350E-8
         4331.715     1.814844E-8
         4335.581     1.816339E-8
         4339.448     1.817835E-8
         4343.318     1.819312E-8
         4347.195     1.820788E-8
         4351.072     1.822258E-8
         4354.956     1.823714E-8
          4358.84     1.825171E-8
         4362.728     1.826642E-8
         4366.624     1.828122E-8
         4370.519     1.829599E-8
         4374.417     1.831057E-8
         4378.318     1.832516E-8
         4382.229     5.881997E-8
         4386.137     1.299233E-7
         4390.049     2.086081E-7
         4393.967     8.689391E-7
         4397.889     1.530965E-6
         4401.812     2.036505E-6
         4405.738     2.359373E-6
         4409.667     2.683034E-6
         4413.603     3.167694E-6
         4417.542     3.668325E-6
         4421.482     4.008296E-6
         4425.426     4.080657E-6
         4429.373     4.153179E-6
         4433.329     3.979190E-6
         4437.283     3.758467E-6
         4441.241     3.552756E-6
         4445.205     3.380461E-6
         4449.169     3.207850E-6
          4453.14     2.738206E-6
         4457.112     2.189150E-6
         4461.088     1.699661E-6
         4465.069     1.370679E-6
         4469.052     1.041108E-6
         4473.041     8.461494E-7
          4477.03     6.931892E-7
         4481.028     5.588493E-7
         4485.022     4.798000E-7
         4489.025     4.004542E-7
         4493.032     3.558727E-7
         4497.039     3.224596E-7
         4501.053     2.947469E-7
         4505.067     2.832766E-7
         4509.086     2.716947E-7
         4513.107     2.656445E-7
         4517.136     2.611965E-7
         4521.167     2.524454E-7
           4525.2     2.331213E-7
         4529.238     2.136100E-7
         4533.281     2.434687E-7
         4537.324     2.851119E-7
         4541.371     3.210478E-7
         4545.422     3.454074E-7
         4549.479     3.699812E-7
         4553.539     4.005987E-7
           4557.6     4.323169E-7
         4561.668     4.564443E-7
         4565.734     4.693670E-7
         4569.809     4.824047E-7
         4573.887     4.355731E-7
         4577.967     3.853938E-7
         4582.053     3.268900E-7
         4586.142     2.600518E-7
         4590.233     1.947795E-7
         4594.327     1.639021E-7
         4598.425     1.327634E-7
         4602.529     1.329990E-7
         4606.637     1.530453E-7
         4610.746     1.623587E-7
          4614.86     1.224090E-7
         4618.979     8.211794E-8
         4623.097     8.437782E-8
         4627.223     1.008533E-7
          4631.35     1.078230E-7
         4635.483     9.493458E-8
         4639.621     8.193903E-8
         4643.759     1.092387E-7
           4647.9     1.408517E-7
         4652.046     1.592286E-7
         4656.198     1.638449E-7
         4660.354     1.653527E-7
         4664.511     1.329480E-7
         4668.673     1.002666E-7
          4672.84     9.197534E-8
         4677.005     9.518047E-8
          4681.18     9.121936E-8
         4685.355     6.889656E-8
         4689.537     4.638003E-8
         4693.722     5.168097E-8
         4697.909     6.051767E-8
         4702.102     5.752979E-8
         4706.293     4.264306E-8
         4710.493     2.971211E-8
         4714.697     3.247442E-8
         4718.902     3.525576E-8
         4723.114     4.072404E-8
          4727.33     4.717666E-8
         4731.543     4.986176E-8
         4735.766     4.594389E-8
          4739.99     4.199678E-8
         4744.221     4.192839E-8
         4748.455     4.186762E-8
          4752.69     3.868325E-8
         4756.932     3.366911E-8
         4761.172     2.929887E-8
         4765.421     2.667086E-8
         4769.674     2.402236E-8
         4773.929     4.063570E-8
         4778.189     5.899106E-8
         4782.454     6.352727E-8
         4786.719     5.775803E-8
         4790.989     5.231118E-8
         4795.262     4.804606E-8
         4799.542     4.374516E-8
         4803.826     5.914299E-8
          4808.11     7.701575E-8
         4812.401     7.863745E-8
         4816.696     6.731504E-8
         4820.993     5.574140E-8
         4825.292     4.350758E-8
         4829.597     3.118015E-8
         4833.907     2.812172E-8
         4838.221     2.601080E-8
         4842.537     2.528320E-8
         4846.855     2.553413E-8
         4851.179     2.615768E-8
         4855.508     2.778064E-8
         4859.842     2.941495E-8
         4864.177     2.790612E-8
         4868.518     2.626481E-8
         4872.863     2.575608E-8
         4877.209     2.583820E-8
          4881.56     2.592041E-8
         4885.914     2.600272E-8
         4890.277     2.614163E-8
         4894.639     2.711586E-8
         4899.004     2.809662E-8
         4903.376     2.991428E-8
         4907.748     3.198785E-8
          4912.13     3.196540E-8
         4916.512     2.970074E-8
         4920.897     3.259246E-8
         4925.289     5.571594E-8
         4929.685     7.900593E-8
         4934.082     8.450726E-8
         4938.482     8.865434E-8
         4942.887     7.202848E-8
         4947.301     4.427242E-8
         4951.714     2.724991E-8
         4956.131     2.733399E-8
         4960.554     2.741816E-8
         4964.976     2.750199E-8
          4969.41     2.758607E-8
         4973.842     2.767047E-8
         4978.278     2.775500E-8
         4982.724     2.904134E-8
         4987.168     3.109609E-8
         4991.617     3.568221E-8
         4996.069     4.472627E-8
         5000.528     5.350266E-8
         5004.991     5.983296E-8
         5009.455     6.620991E-8
         5013.923     5.201477E-8
         5018.398     3.481652E-8
         5022.874     2.869493E-8
         5027.357     2.879839E-8
         5031.841     2.890174E-8
         5036.329     2.900499E-8
         5040.827     2.910856E-8
         5045.323     2.921241E-8
         5049.823     2.931640E-8
         5054.327     2.942009E-8
         5058.838     2.952394E-8
         5063.353     3.241188E-8
         5067.869     3.628858E-8
          5072.39     3.960252E-8
         5076.919     4.241391E-8
         5081.448     4.230989E-8
          5085.98     3.593557E-8
         5090.516     3.046371E-8
          5095.06     3.240626E-8
         5099.607     3.436328E-8
         5104.155     4.051168E-8
         5108.708     4.710468E-8
         5113.265     4.783317E-8
         5117.828     4.621440E-8
         5122.396     4.250100E-8
         5126.965     3.686729E-8
         5131.538     3.284329E-8
          5136.12     3.206530E-8
         5140.701     3.141819E-8
         5145.287     3.152463E-8
         5149.876     3.163117E-8
         5154.472     3.173791E-8
         5159.072     3.184478E-8
         5163.674     3.195168E-8
         5168.283     3.205877E-8
         5172.895     3.726673E-8
         5177.506     4.554276E-8
         5182.127     4.655358E-8
         5186.749     3.893832E-8
         5191.378     3.344804E-8
         5196.012     3.309862E-8
         5200.646     3.385343E-8
         5205.285     4.147844E-8
         5209.928     4.915987E-8
         5214.577     5.003838E-8
         5219.231     5.081372E-8
         5223.887     4.418914E-8
         5228.549     3.603981E-8
         5233.215     3.698698E-8
          5237.88     4.208395E-8
         5242.555     4.231115E-8
         5247.231     3.844732E-8
         5251.914     3.577495E-8
         5256.601     3.485856E-8
          5261.29     4.468771E-8
         5265.985     8.305047E-8
          5270.68     1.150133E-7
         5275.383     1.078551E-7
         5280.092     1.002353E-7
         5284.801     7.204752E-8
         5289.518     4.363589E-8
         5294.239     3.835650E-8
         5298.958     3.570561E-8
         5303.687     6.243909E-8
         5308.418     9.768959E-8
         5313.155     8.630029E-8
         5317.897     5.121059E-8
         5322.641     3.564351E-8
         5327.391     3.575315E-8
          5332.14     3.586299E-8
         5336.899     3.597337E-8
         5341.662     3.856220E-8
         5346.426     4.580864E-8
         5351.198     5.604642E-8
         5355.974     7.515379E-8
         5360.751     8.727452E-8
         5365.532     6.122470E-8
         5370.318     3.674672E-8
         5375.111     3.685698E-8
         5379.908     3.696732E-8
         5384.707     4.318288E-8
         5389.513     4.956351E-8
         5394.323     4.470705E-8
         5399.131     3.854738E-8
          5403.95     4.810459E-8
          5408.77     6.120074E-8
         5413.597     6.387649E-8
         5418.429     6.295994E-8
         5423.262     5.468903E-8
         5428.099     4.280803E-8
          5432.94     3.818754E-8
         5437.792     3.829872E-8
         5442.643     3.848690E-8
         5447.497     3.874029E-8
         5452.359     4.005519E-8
         5457.225     4.250748E-8
         5462.092     4.289636E-8
         5466.964     4.052143E-8
          5471.84     3.907622E-8
         5476.724     3.918699E-8
         5481.612     3.929784E-8
         5486.501     3.940875E-8
         5491.398     4.483309E-8
         5496.293     6.361611E-8
         5501.198     7.941292E-8
         5506.108     8.558948E-8
         5511.019     8.539914E-8
         5515.938     6.066372E-8
          5520.86     4.015385E-8
         5525.785     4.025734E-8
         5530.713     4.094266E-8
         5535.646     4.508102E-8
         5540.587     5.312832E-8
         5545.532     9.012236E-8
         5550.478     1.236909E-7
         5555.432     1.235557E-7
         5560.387     1.233451E-7
         5565.347     1.222686E-7
         5570.313     1.215497E-7
         5575.282     1.262775E-7
         5580.258     1.314705E-7
         5585.238     1.447154E-7
          5590.22     1.633598E-7
         5595.206     2.980926E-7
         5600.197     4.342670E-7
         5605.198     5.874627E-7
         5610.197     7.368345E-7
         5615.201     7.840978E-7
         5620.213     8.320733E-7
         5625.226     8.916761E-7
         5630.246     9.532980E-7
         5635.268     1.049398E-6
         5640.294     1.149405E-6
         5645.328     1.307231E-6
         5650.367     1.456896E-6
         5655.406     1.495423E-6
         5660.451     1.525303E-6
         5665.502     1.465525E-6
         5670.559     1.413503E-6
         5675.617     1.425651E-6
         5680.679     1.411414E-6
         5685.752     1.225996E-6
         5690.823     1.066662E-6
         5695.899     1.043990E-6
         5700.979     1.008048E-6
         5706.064     9.166325E-7
          5711.16     8.309853E-7
         5716.254     7.662207E-7
         5721.353     7.128662E-7
         5726.456     6.916219E-7
         5731.567     7.251575E-7
         5736.682     8.831876E-7
         5741.799     9.583810E-7
          5746.92     8.798504E-7
         5752.053     8.179630E-7
         5757.183     7.814881E-7
         5762.318     7.796310E-7
         5767.458     8.200897E-7
         5772.602     8.812114E-7
         5777.757     9.627361E-7
         5782.911     9.838194E-7
         5788.068     9.581634E-7
         5793.237     9.661065E-7
         5798.401     9.941895E-7
         5803.577     1.048606E-6
         5808.753     1.114901E-6
         5813.937     1.254571E-6
         5819.126     1.417936E-6
         5824.316     1.524525E-6
         5829.511     1.619861E-6
         5834.711     1.865836E-6
         5839.918     2.128441E-6
          5845.13     2.673246E-6
         5850.344     3.267059E-6
         5855.562     4.473101E-6
         5860.792     5.980783E-6
         5866.016     9.150789E-6
         5871.251     1.293815E-5
         5876.488     1.865795E-5
         5881.732     2.706951E-5
         5886.982     4.093247E-5
         5892.232     5.892631E-5
         5897.491     8.254359E-5
         5902.749     1.194338E-4
         5908.017     1.685992E-4
          5913.29     2.343360E-4
         5918.563     3.101558E-4
         5923.846     4.380512E-4
         5929.133     5.857642E-4
         5934.421     7.703218E-4
         5939.714     9.626602E-4
         5945.012     9.612500E-4
         5950.318     0.001264491
         5955.629     0.001621946
         5960.941     0.002090041
         5966.258     0.002636976
         5971.579     0.003281607
         5976.909     0.004072702
         5982.243     0.004984901
         5987.579     0.006018265
         5992.923     0.007229356
         5998.271     0.008545335
         6003.622      0.01005851
         6008.976      0.01171514
         6014.336      0.01354436
         6019.704      0.01557807
         6025.076      0.01784473
          6030.45      0.02034593
         6035.832      0.02301414
         6041.219      0.02590894
         6046.604      0.02894223
         6052.001      0.03208216
         6057.399      0.03540171
         6062.805      0.03868334
         6068.216       0.0419832
         6073.628      0.04522997
         6079.046      0.04842343
         6084.468      0.05172571
         6089.898      0.05493373
         6095.333      0.05818161
          6100.77      0.06138533
         6106.215       0.0646905
         6111.665      0.06777819
         6117.112      0.07098812
         6122.572      0.07378379
         6128.033      0.07665332
         6133.502      0.07915608
         6138.976      0.08156485
         6144.452      0.08393484
         6149.936      0.08604383
         6155.417      0.08816123
         6160.911      0.09017412
          6166.41      0.09216039
          6171.91      0.09399577
         6177.418      0.09645512
         6182.932      0.09784094
         6188.443      0.09992757
         6193.966       0.1019139
         6199.491       0.1038337
         6205.024       0.1055708
         6210.562       0.1073822
         6216.101       0.1091512
         6221.649       0.1106243
         6227.195       0.1121482
         6232.756       0.1134862
         6238.315       0.1149242
         6243.879       0.1165023
         6249.452       0.1178124
         6255.029       0.1191974
         6260.608       0.1205949
         6266.193       0.1218711
         6271.782       0.1234129
         6277.379       0.1246459
         6282.982       0.1259283
         6288.586       0.1272906
         6294.198       0.1283571
         6299.809       0.1293728
         6305.435       0.1301472
         6311.059       0.1311327
         6316.688       0.1319344
         6322.326       0.1325753
         6327.968       0.1333098
         6333.612       0.1338768
         6339.262       0.1341728
         6344.916       0.1345799
         6350.579       0.1349523
         6356.247       0.1350589
         6361.916       0.1353112
         6367.594       0.1354253
         6373.277       0.1358019
         6378.961       0.1355138
         6384.651       0.1357204
         6390.346       0.1355846
         6396.049       0.1358066
         6401.757        0.135659
         6407.467       0.1355323
         6413.183       0.1356049
         6418.906       0.1354528
         6424.631       0.1353558
         6430.365        0.135218
         6436.104       0.1348689
         6441.845       0.1349276
         6447.594       0.1349496
         6453.345        0.134703
         6459.101       0.1346647
         6464.866       0.1347044
         6470.632       0.1347739
         6476.407       0.1349516
         6482.184       0.1353207
         6487.969       0.1354361
         6493.756       0.1356028
         6499.548       0.1359647
         6505.349       0.1360364
         6511.154       0.1361681
         6516.962       0.1360679
         6522.778       0.1360028
         6528.596       0.1357336
         6534.419       0.1359689
         6540.251       0.1362029
         6546.088       0.1359803
         6551.927       0.1360493
         6557.771       0.1361342
         6563.624       0.1361758
         6569.478       0.1365352
         6575.341       0.1367524
         6581.206       0.1369483
          6587.08       0.1371302
         6592.955       0.1375299
         6598.839       0.1377972
         6604.729       0.1381557
         6610.616       0.1382467
         6616.516       0.1384771
         6622.421       0.1385206
         6628.328       0.1385144
         6634.244       0.1384947
         6640.165       0.1384045
         6646.087       0.1383633
         6652.015       0.1383843
         6657.948        0.138365
         6663.891       0.1381193
         6669.838       0.1381597
         6675.787       0.1380373
         6681.745       0.1379603
         6687.701        0.137942
          6693.67       0.1378108
         6699.644       0.1376786
          6705.62        0.137457
         6711.604       0.1372583
         6717.594       0.1369285
         6723.586       0.1367628
         6729.583       0.1364024
         6735.585        0.136233
         6741.597        0.135858
         6747.613       0.1356163
         6753.632        0.135259
          6759.66       0.1351528
         6765.692       0.1350027
         6771.723       0.1346756
         6777.767       0.1345203
         6783.813       0.1342829
         6789.867       0.1337676
         6795.927       0.1338354
         6801.988       0.1332501
         6808.055       0.1330772
         6814.127       0.1327282
         6820.209        0.132391
         6826.296       0.1319715
         6832.385       0.1316903
         6838.482       0.1316124
         6844.586       0.1315269
         6850.687       0.1310855
         6856.801       0.1309571
         6862.917       0.1307255
         6869.042       0.1306059
         6875.173       0.1301692
         6881.305       0.1299174
         6887.446       0.1295692
         6893.586       0.1291425
         6899.738       0.1287415
         6905.896       0.1285231
         6912.056       0.1282843
         6918.225       0.1276934
         6924.399       0.1272772
         6930.572       0.1268887
         6936.757       0.1263047
         6942.944       0.1259782
         6949.141       0.1254024
         6955.343       0.1247787
         6961.546       0.1239758
          6967.76       0.1231915
         6973.971       0.1223481
         6980.195       0.1216659
         6986.424       0.1207398
         6992.656       0.1199031
         6998.897       0.1192816
         7005.143       0.1181613
         7011.392       0.1174534
         7017.645       0.1168903
         7023.904       0.1162485
         7030.173       0.1155822
         7036.448        0.114987
         7042.724       0.1144675
         7049.009       0.1136299
         7055.292       0.1126387
         7061.589        0.111457
         7067.892        0.110122
         7074.196       0.1087135
          7080.51       0.1070572
         7086.829       0.1054539
          7093.15       0.1038685
         7099.477       0.1026184
         7105.809       0.1015711
         7112.151       0.1007054
         7118.498       0.1002651
         7124.848       0.1001012
         7131.207       0.1001481
         7137.571       0.1003784
         7143.933       0.1006119
         7150.309       0.1008838
         7156.687       0.1012484
         7163.074       0.1013342
         7169.467       0.1009216
         7175.862       0.1006607
         7182.262      0.09999099
         7188.668      0.09949551
         7195.084      0.09894358
         7201.506       0.0984034
         7207.929      0.09800567
         7214.362      0.09783313
         7220.801      0.09819756
         7227.237      0.09828772
         7233.688      0.09896506
         7240.144      0.09994116
         7246.601       0.1009927
         7253.069       0.1021498
         7259.538       0.1033639
         7266.017       0.1042346
         7272.498         0.10514
         7278.989       0.1061212
         7285.481       0.1064962
         7291.979       0.1067658
         7298.487         0.10695
         7305.001       0.1066786
         7311.517       0.1057892
         7318.038       0.1045518
         7324.569       0.1025531
         7331.103       0.1001721
         7337.646       0.0971724
          7344.19      0.09353904
         7350.745      0.08940405
         7357.301      0.08485336
         7363.867      0.07991602
         7370.436      0.07478754
         7377.014      0.06944239
         7383.593      0.06379488
         7390.183      0.05805454
         7396.775      0.05206161
         7403.372      0.04632021
         7409.979      0.04071396
         7416.589      0.03561481
         7423.208      0.03104714
         7429.829      0.02709929
          7436.46      0.02355428
         7443.097      0.02060079
         7449.736      0.01819891
         7456.381      0.01609477
         7463.036      0.01444949
         7469.692      0.01304456
         7476.359      0.01184732
         7483.027      0.01081828
         7489.702     0.009907325
         7496.386      0.00912746
         7503.077     0.008255907
         7509.769     0.007418168
         7516.471      0.00660421
         7523.175     0.005837559
          7529.89     0.005131109
         7536.606      0.00452054
         7543.328     0.003958229
         7550.061      0.00347925
         7556.794     0.003062512
         7563.539     0.002850596
          7570.29     0.002673745
         7577.042     0.002497951
           7583.8     0.002323084
         7590.568     0.002146887
         7597.339     0.001948312
         7604.119     0.001781432
         7610.906     0.001636033
         7617.694     0.001496543
         7624.489     0.001379073
          7631.29     0.001272888
           7638.1     0.001166188
         7644.917     0.001077593
         7651.736     9.956545E-4
         7658.565     9.122674E-4
         7665.396     8.431220E-4
         7672.233     7.778788E-4
         7679.081     7.126980E-4
          7685.93     6.603005E-4
          7692.79     6.103558E-4
         7699.655     5.611014E-4
         7706.523     5.226622E-4
         7713.401     4.852778E-4
         7720.276     4.487985E-4
         7727.167     4.204652E-4
         7734.063     3.923628E-4
         7740.961     3.653470E-4
          7747.87     3.437724E-4
         7754.785     3.217230E-4
         7761.697     3.004957E-4
         7768.625     2.822229E-4
         7775.554     2.634297E-4
         7782.494     2.458868E-4
         7789.439     2.307785E-4
         7796.387     2.152657E-4
         7803.345     2.012700E-4
         7810.301     1.889677E-4
         7817.271     1.767784E-4
         7824.249     1.662650E-4
         7831.227     1.568789E-4
         7838.216     1.476885E-4
         7845.212     1.399690E-4
         7852.209     1.328759E-4
         7859.213     1.260265E-4
         7866.223     1.204201E-4
         7873.244     1.148047E-4
         7880.271     1.090347E-4
         7887.299     1.041458E-4
         7894.338     9.921057E-5
         7901.375     9.437902E-5
         7908.427     9.003730E-5
         7915.485     8.536126E-5
         7922.545     8.089795E-5
         7929.616     7.696280E-5
         7936.693     7.261134E-5
         7943.772     6.873014E-5
         7950.858     6.526286E-5
          7957.95     6.169139E-5
         7965.052     5.868497E-5
         7972.161     5.594469E-5
         7979.271     5.328542E-5
         7986.393     5.128309E-5
         7993.521     5.044208E-5
         8000.646     5.045175E-5
         8007.786     4.792523E-5
         8014.929     4.550250E-5
         8022.082     4.337686E-5
         8029.242     4.185513E-5
         8036.403     3.952445E-5
         8043.576     3.792400E-5
         8050.746     3.703794E-5
         8057.931     3.521778E-5
         8065.123     3.375508E-5
         8072.316     3.262789E-5
         8079.521     3.189670E-5
         8086.731     3.048710E-5
          8093.94     2.952827E-5
         8101.164     2.892653E-5
         8108.389     2.806633E-5
         8115.626     2.701428E-5
         8122.869     2.601370E-5
         8130.114     2.517115E-5
          8137.37     2.426467E-5
         8144.628     2.363751E-5
         8151.893     2.294993E-5
         8159.168     2.164932E-5
         8166.446     2.095598E-5
         8173.734     2.035753E-5
         8181.029     1.978146E-5
         8188.326     1.924066E-5
          8195.63     1.892947E-5
         8202.939     1.841409E-5
         8210.261     1.752794E-5
         8217.588     1.744029E-5
         8224.918     1.671512E-5
         8232.259     1.581139E-5
         8239.602     1.519964E-5
          8246.95     1.467507E-5
         8254.311     1.436297E-5
         8261.673     1.406349E-5
         8269.047     1.331538E-5
         8276.427     1.294589E-5
         8283.809     1.247863E-5
         8291.197     1.192196E-5
         8298.597     1.163703E-5
         8305.999     1.134735E-5
         8313.412     1.123893E-5
         8320.827     1.126012E-5
         8328.253     1.063507E-5
         8335.687     1.083704E-5
         8343.121     1.086132E-5
         8350.563     1.036972E-5
         8358.011     1.072859E-5
         8365.471     1.072560E-5
         8372.937     1.071143E-5
         8380.409     1.085455E-5
         8387.879     1.053107E-5
         8395.365     9.940575E-6
         8402.854     9.509492E-6
         8410.353     9.502788E-6
         8417.859     9.445825E-6
         8425.367     8.971328E-6
         8432.887     8.561098E-6
         8440.408     8.529406E-6
         8447.937     8.673791E-6
         8455.477     8.726111E-6
         8463.019     8.641673E-6
         8470.571     8.399291E-6
         8478.127     8.090423E-6
         8485.693     7.676143E-6
         8493.262     7.431880E-6
         8500.842     7.443374E-6
         8508.425     7.354849E-6
         8516.019     7.418101E-6
         8523.614     7.534307E-6
         8531.221     7.563949E-6
          8538.83     7.065634E-6
         8546.446     6.509495E-6
         8554.074     6.306077E-6
         8561.704     6.361483E-6
         8569.345     6.221761E-6
         8576.993     6.177779E-6
         8584.644     5.848044E-6
         8592.301     5.425004E-6
         8599.969     5.225146E-6
          8607.64     5.702472E-6
         8615.321     5.694609E-6
         8623.006     5.507450E-6
         8630.702     5.404851E-6
         8638.405     5.590993E-6
         8646.105     5.367504E-6
         8653.821     5.114856E-6
          8661.54     4.904306E-6
         8669.271     4.547423E-6
         8677.008     4.251356E-6
         8684.747     4.335562E-6
         8692.493     4.407124E-6
         8700.251     3.972031E-6
         8708.012     3.827317E-6
         8715.783     3.266646E-6
         8723.563     2.811790E-6
         8731.343     2.620926E-6
         8739.136     2.298512E-6
         8746.926     2.267217E-6
         8754.732     1.906380E-6
         8762.546     1.550797E-6
         8770.361     1.689894E-6
         8778.188     1.822998E-6
         8786.019     1.723459E-6
         8793.859     1.581533E-6
         8801.703     1.554312E-6
         8809.554     1.837811E-6
         8817.416     1.641640E-6
         8825.286     1.439317E-6
         8833.157     1.381345E-6
         8841.041     1.506452E-6
         8848.922     1.537864E-6
         8856.819     1.102116E-6
         8864.724     8.907507E-7
         8872.631     1.070687E-6
          8880.55     1.586041E-6
         8888.476     1.466309E-6
         8896.403     1.329376E-6
         8904.338     1.258202E-6
          8912.28     1.169196E-6
         8920.234     8.918232E-7
         8928.195     5.111704E-7
         8936.159     5.941652E-7
         8944.135     6.738610E-7
         8952.117     6.489864E-7
         8960.097     6.824869E-7
         8968.094     4.511767E-7
         8976.093     8.037919E-7
         8984.104     8.043120E-7
         8992.122     5.568718E-7
         9000.143     9.924913E-7
         9008.175     4.700986E-7
         9016.205     4.464217E-7
         9024.252     5.783214E-7
         9032.306     5.951077E-7
         9040.362     3.146272E-7
         9048.431     2.249345E-7
         9056.506     3.870426E-7
         9064.579     3.828942E-7
         9072.669     3.045078E-7
         9080.761     4.310792E-7
         9088.865     6.578222E-7
         9096.978     3.271044E-7
         9105.092     2.332411E-7
         9113.218     4.180533E-7
         9121.341     6.220573E-7
         9129.481     2.669916E-7
          9137.63     6.133449E-7
          9145.78     5.956894E-7
         9153.942     5.147394E-7
         9162.112     4.835620E-7
         9170.284     2.925057E-7
         9178.464     3.528205E-7
         9186.655     3.945622E-7
         9194.849     5.082636E-7
         9203.056     5.011051E-7
         9211.264     3.036494E-7
         9219.485     6.356112E-7
         9227.708     3.190339E-7
         9235.938     3.704762E-7
         9244.182     3.432897E-7
         9252.427     2.613829E-7
         9260.685     5.477270E-7
         9268.949     4.443348E-7
         9277.217     3.389251E-7
         9285.492     4.081536E-7
         9293.779     4.068522E-7
         9302.068     2.989552E-7
          9310.37     4.103375E-7
         9318.675     2.034746E-7
         9326.991     1.011079E-7
         9335.315     2.645095E-7
         9343.637     3.333598E-7
         9351.977     1.532944E-7
         9360.317     1.322202E-7
         9368.672     5.349095E-7
         9377.033     5.256555E-7
         9385.396     2.886974E-7
         9393.768     1.863008E-7
         9402.152     3.230985E-7
         9410.538     4.117435E-7
         9418.937     6.563520E-7
         9427.338     2.880859E-7
         9435.752     1.545328E-7
         9444.173     2.728991E-7
         9452.592     4.305311E-7
         9461.028     4.293259E-7
         9469.472     3.313846E-7
         9477.918     2.708178E-7
         9486.377     3.423028E-7
         9494.838     2.971628E-7
         9503.313     1.571784E-7
         9511.788     8.056812E-8
         9520.272     1.162541E-7
          9528.77     6.847419E-8
         9537.269     1.465572E-7
          9545.78     2.457211E-7
           9554.3     2.216703E-7
         9562.821     1.611547E-7
         9571.351     2.482137E-7
         9579.894     2.530952E-7
         9588.438     8.166365E-8
         9596.995     2.147214E-7
         9605.561     2.352802E-7
         9614.128     2.714709E-7
         9622.704     3.369008E-7
         9631.286     2.407484E-7
         9639.882     2.865433E-7
         9648.485     3.928675E-7
         9657.092     4.167446E-7
         9665.711     3.687956E-7
         9674.332     3.722018E-7
         9682.961     4.508216E-7
         9691.603     5.381887E-7
         9700.252     6.625544E-7
         9708.904     5.405535E-7
         9717.569     4.432115E-7
         9726.237     3.496427E-7
         9734.912     3.393267E-7
         9743.601     4.410790E-7
         9752.291     5.368427E-7
         9760.995     4.278231E-7
         9769.701     3.088209E-7
         9778.421     3.136360E-7
         9787.147     2.761956E-7
         9795.872     1.728077E-7
         9804.614     1.972032E-7
         9813.359     2.872037E-7
         9822.118     2.649760E-7
         9830.884     2.288681E-7
         9839.652     1.961685E-7
         9848.435     2.209965E-7
         9857.219     1.920694E-7
         9866.011     2.303816E-7
         9874.816     2.647926E-7
         9883.624     2.551041E-7
         9892.444     2.517197E-7
         9901.273     3.105371E-7
         9910.104     3.850320E-7
         9918.944     3.942714E-7
         9927.791     4.178497E-7
         9936.651     4.617723E-7
         9945.521     4.862893E-7
         9954.391     5.426398E-7
         9963.275     6.106977E-7
         9972.162     6.267831E-7
         9981.057     6.492182E-7
         9989.964     6.204195E-7
          9998.88     5.824369E-7
          10007.8     5.564402E-7
         10016.72     5.606050E-7
         10025.67     5.409752E-7
          10034.6     4.470069E-7
         10043.56     3.644172E-7
         10052.52     3.502398E-7
         10061.49     2.895381E-7
         10070.47     2.982755E-7
         10079.46     2.709420E-7
         10088.45     2.486666E-7
         10097.44     2.185703E-7
         10106.46     2.235947E-7
         10115.48     2.138277E-7
          10124.5     1.927814E-7
         10133.53     2.172661E-7
         10142.58     2.887242E-7
         10151.62     3.259499E-7
         10160.68     3.356546E-7
         10169.74     2.979275E-7
         10178.81     2.920075E-7
          10187.9     2.252214E-7
         10196.99     1.987529E-7
         10206.08     1.562613E-7
         10215.19     1.198024E-7
         10224.31     1.226960E-7
         10233.43     1.420126E-7
         10242.56     1.447721E-7
         10251.69     1.445509E-7
         10260.85     1.413134E-7
           10270.     1.463468E-7
         10279.16     1.781470E-7
         10288.33     1.954182E-7
         10297.51     2.517032E-7
          10306.7     2.600480E-7
         10315.89     2.633207E-7
          10325.1     2.833960E-7
          10334.3     3.080887E-7
         10343.53     3.145482E-7
         10352.76     2.954269E-7
         10361.99     2.734054E-7
         10371.25     2.482903E-7
          10380.5     2.156134E-7
         10389.76     1.887477E-7
         10399.02     2.017199E-7
          10408.3     1.758496E-7
         10417.59     1.511820E-7
         10426.89     1.365937E-7
         10436.19     1.184933E-7
         10445.49     9.329449E-8
         10454.82     7.951056E-8
         10464.15     6.895982E-8
         10473.48     5.756348E-8
         10482.82     5.462848E-8
         10492.17     4.497578E-8
         10501.54     4.936095E-8
         10510.91     4.408990E-8
         10520.29     4.116245E-8
         10529.67     3.999967E-8
         10539.07     3.559467E-8
         10548.47     3.714240E-8
         10557.88     4.136278E-8
         10567.31     4.222942E-8
         10576.73     4.888034E-8
         10586.17     5.812603E-8
         10595.61     6.673739E-8
         10605.06     8.151143E-8
         10614.53     9.674741E-8
           10624.     1.086147E-7
         10633.48     1.203325E-7
         10642.96     1.276563E-7
         10652.45     1.340054E-7
         10661.97     1.352697E-7
         10671.48     1.361189E-7
         10680.99     1.305145E-7
         10690.53     1.216838E-7
         10700.07     1.129868E-7
         10709.61     1.052629E-7
         10719.16     9.595265E-8
         10728.72     8.756226E-8
         10738.31     8.536978E-8
         10747.88     7.630718E-8
         10757.47     7.082486E-8
         10767.08     6.456143E-8
         10776.67     5.886389E-8
         10786.29     5.591145E-8
         10795.91     5.552924E-8
         10805.54     5.204807E-8
         10815.18     4.955089E-8
         10824.83     5.094248E-8
         10834.49     5.298948E-8
         10844.17     5.544226E-8
         10853.84     5.690322E-8
         10863.52     5.861221E-8
         10873.21     6.285278E-8
         10882.91     6.384707E-8
         10892.63     6.428198E-8
         10902.35     6.269801E-8
         10912.07     6.087782E-8
         10921.81     5.825151E-8
         10931.54     5.472014E-8
         10941.31     5.159676E-8
         10951.07     4.972342E-8
         10960.83     4.642028E-8
         10970.62     4.438080E-8
         10980.39     4.407160E-8
          10990.2     4.365229E-8
           11000.     3.946962E-8
