#  Table wf4f336wsys.tab  Mon 12:22:43 02-Jun-97

#      WAVELENGTH      THROUGHPUT
#       angstroms                

            2890.    4.741484E-10
         2891.934     3.776071E-9
         2893.866     2.184315E-8
         2895.804     5.248747E-8
         2897.742     1.063830E-7
         2899.679     2.596045E-7
         2901.618     5.152672E-7
         2903.559     7.908439E-7
         2905.501     1.066083E-6
         2907.445     1.340983E-6
         2909.389     1.615473E-6
         2911.335     3.182672E-6
         2913.283     5.338665E-6
         2915.233     7.493782E-6
         2917.181     9.642078E-6
         2919.133     1.178920E-5
         2921.083     1.649268E-5
         2923.039     2.325066E-5
         2924.996     2.999880E-5
         2926.951     3.672615E-5
         2928.908     4.344945E-5
         2930.867     5.443666E-5
         2932.826     7.077291E-5
          2934.79     8.710884E-5
         2936.753     1.034097E-4
         2938.717     1.196857E-4
         2940.683     1.222970E-4
          2942.65     1.128270E-4
         2944.616     1.332064E-4
         2946.587     1.590594E-4
         2948.558     1.866641E-4
         2950.529     2.174173E-4
         2952.504     2.493775E-4
         2954.479     2.853421E-4
         2956.455     3.239388E-4
         2958.433     3.654223E-4
         2960.412     4.103296E-4
          2962.39     4.591747E-4
         2964.373     5.133399E-4
         2966.358     5.686611E-4
          2968.34     6.300953E-4
         2970.326     6.934810E-4
         2972.313     7.605992E-4
         2974.299     8.326473E-4
          2976.29     9.076031E-4
         2978.279     9.870606E-4
         2980.273     0.001071763
         2982.266     0.001160633
          2984.26     0.001252846
         2986.257     0.001348793
         2988.255     0.001448815
         2990.252     0.001551694
         2992.254     0.001659105
         2994.255     0.001764914
         2996.258     0.001874062
         2998.262     0.001985268
         3000.268     0.002101257
         3002.273     0.002218306
         3004.281     0.002334757
         3006.292     0.002454093
         3008.303     0.002577307
         3010.315     0.002702601
         3012.329     0.002830931
         3014.342     0.002956682
         3016.358     0.003085209
         3018.377     0.003221916
         3020.396     0.003364319
         3022.417     0.003508038
         3024.438     0.003658517
         3026.459     0.003819742
         3028.485     0.003985561
         3030.511     0.004154108
         3032.537     0.004330681
         3034.567     0.004525641
         3036.595     0.004737102
         3038.627     0.004961218
          3040.66     0.005196453
         3042.692     0.005442939
         3044.727      0.00570243
         3046.764      0.00598665
         3048.803     0.006297298
         3050.843     0.006632016
         3052.883     0.006989711
         3054.924     0.007368384
         3056.967      0.00777147
         3059.013     0.008207745
         3061.058     0.008676028
         3063.107     0.009176755
         3065.156     0.009711158
         3067.205      0.01027638
         3069.258      0.01087546
         3071.311       0.0115086
         3073.364      0.01216743
         3075.419      0.01284829
         3077.478      0.01354922
         3079.536      0.01426607
         3081.596      0.01500003
         3083.657       0.0157461
         3085.718      0.01648236
         3087.782      0.01720124
         3089.849      0.01790697
         3091.916      0.01858242
         3093.984      0.01922747
         3096.054      0.01983418
         3098.123      0.02039654
         3100.197      0.02091236
         3102.269      0.02142792
         3104.344      0.02189103
         3106.422      0.02230079
         3108.498       0.0226637
         3110.579      0.02298158
          3112.66      0.02325899
          3114.74      0.02350472
         3116.823      0.02372597
          3118.91       0.0239241
         3120.996      0.02408919
         3123.083       0.0242237
         3125.173      0.02434398
         3127.261      0.02446882
         3129.353      0.02460407
         3131.448      0.02474103
         3133.541      0.02487186
         3135.638      0.02498745
         3137.736      0.02510619
         3139.833      0.02525056
         3141.935      0.02539987
         3144.036       0.0255431
         3146.137      0.02569142
         3148.244       0.0258755
         3150.349      0.02605898
         3152.455      0.02622356
         3154.565      0.02639793
         3156.674      0.02658609
         3158.785      0.02678781
         3160.898      0.02700209
         3163.012      0.02721632
         3165.129      0.02743435
         3167.247      0.02764654
         3169.363      0.02784014
         3171.483      0.02803272
         3173.605      0.02823971
         3175.727       0.0284417
         3177.852      0.02860655
         3179.979      0.02877659
         3182.104      0.02895056
         3184.233       0.0291158
         3186.363      0.02927524
         3188.494      0.02940864
         3190.626      0.02953191
         3192.762      0.02966485
         3194.896      0.02979345
         3197.033      0.02990609
         3199.173      0.03001271
         3201.312      0.03012578
         3203.453      0.03023715
         3205.594       0.0303316
          3207.74       0.0304167
         3209.887       0.0304992
         3212.034      0.03057909
         3214.181      0.03065092
         3216.331       0.0307296
          3218.48      0.03080428
         3220.635      0.03087472
         3222.791      0.03094356
         3224.945      0.03102208
         3227.102      0.03109903
          3229.26      0.03115248
          3231.42      0.03121441
         3233.582      0.03129925
         3235.745      0.03138673
         3237.909      0.03145963
         3240.075      0.03152028
         3242.244      0.03158426
         3244.411      0.03166908
         3246.581      0.03175446
         3248.752      0.03182298
         3250.925      0.03188957
         3253.102      0.03197047
         3255.278      0.03205313
         3257.453      0.03210008
         3259.632      0.03213164
         3261.811      0.03216872
         3263.994       0.0322091
         3266.177      0.03225029
         3268.364      0.03227545
         3270.548      0.03232253
         3272.736      0.03237618
         3274.925      0.03241549
         3277.115       0.0324352
         3279.307      0.03245189
         3281.499      0.03247884
         3283.696      0.03251063
         3285.894      0.03253311
          3288.09      0.03253501
         3290.289      0.03255648
          3292.49      0.03258108
         3294.691      0.03260009
         3296.896      0.03260688
         3299.103      0.03259366
         3301.308       0.0325728
         3303.516      0.03256615
         3305.724      0.03257946
         3307.937       0.0325856
          3310.15      0.03258942
         3312.364      0.03258527
         3314.579      0.03258675
         3316.796      0.03258555
         3319.017      0.03257438
         3321.235      0.03256611
         3323.457      0.03255884
         3325.678      0.03255018
         3327.904      0.03254122
         3330.132      0.03254234
         3332.359      0.03255429
         3334.586      0.03256449
         3336.817      0.03256709
         3339.047      0.03257147
         3341.282      0.03257368
         3343.517      0.03258019
         3345.753      0.03260769
         3347.991      0.03262345
         3350.231      0.03262798
          3352.47      0.03265114
         3354.714      0.03268062
         3356.958      0.03270428
         3359.203      0.03272657
          3361.45      0.03274741
         3363.699      0.03277623
         3365.948      0.03282062
           3368.2      0.03286859
         3370.453        0.032908
         3372.706      0.03294238
         3374.963      0.03298633
         3377.223      0.03304168
          3379.48      0.03309039
          3381.74      0.03315302
         3384.002      0.03322509
         3386.264      0.03327156
         3388.529      0.03333518
         3390.799      0.03341381
         3393.065      0.03350473
         3395.335      0.03359744
         3397.604       0.0336628
         3399.876      0.03369744
         3402.153      0.03376997
         3404.426      0.03386241
         3406.705      0.03396782
         3408.984      0.03406233
         3411.262      0.03416217
         3413.546      0.03427032
         3415.827      0.03437489
         3418.112      0.03446831
         3420.398      0.03456794
         3422.688      0.03466499
         3424.978      0.03475492
         3427.268      0.03484642
         3429.561      0.03494073
         3431.853      0.03503632
         3434.148      0.03512411
         3436.445      0.03520121
         3438.746      0.03527133
         3441.046      0.03533755
         3443.346      0.03540154
         3445.649      0.03545448
         3447.956      0.03549895
          3450.26      0.03552266
         3452.568      0.03553994
         3454.879      0.03554483
         3457.188      0.03553677
         3459.502      0.03551617
         3461.816      0.03547237
          3464.13      0.03542223
         3466.447      0.03536698
         3468.768      0.03529335
          3471.09      0.03520221
         3473.409      0.03509073
         3475.733      0.03494869
         3478.056      0.03479524
         3480.382      0.03462918
         3482.712      0.03444334
          3485.04      0.03423224
         3487.373      0.03400818
         3489.703      0.03376559
         3492.038      0.03350192
         3494.375      0.03321945
         3496.711      0.03291696
          3499.05      0.03259485
         3501.392      0.03225567
         3503.734       0.0319068
         3506.077      0.03153645
         3508.423      0.03114916
         3510.767      0.03075623
         3513.116      0.03035026
         3515.466      0.02993418
         3517.817       0.0295087
         3520.172      0.02908164
         3522.526      0.02864746
         3524.881      0.02819148
         3527.238      0.02773491
           3529.6      0.02727957
         3531.958      0.02682098
         3534.321      0.02636067
         3536.687      0.02589262
         3539.051      0.02542245
          3541.42      0.02497889
         3543.789      0.02453293
         3546.157      0.02405995
         3548.529      0.02358579
         3550.905      0.02312952
          3553.28       0.0226754
         3555.656      0.02221169
         3558.035      0.02174624
         3560.413      0.02128505
         3562.794      0.02082363
         3565.177      0.02036823
         3567.562      0.01990966
          3569.95      0.01945223
         3572.336      0.01901155
         3574.725      0.01857082
         3577.118       0.0181219
         3579.509      0.01768176
         3581.903      0.01724494
         3584.301      0.01680719
         3586.697       0.0163698
         3589.096      0.01593599
         3591.496      0.01550878
         3593.899      0.01508212
         3596.302      0.01465721
         3598.708      0.01424361
         3601.115      0.01383142
         3603.524      0.01341872
         3605.936      0.01300374
         3608.346      0.01259251
          3610.76      0.01218664
         3613.175      0.01178402
         3615.592      0.01138203
         3618.012      0.01099179
          3620.43      0.01060806
         3622.852      0.01022878
         3625.275     0.009857398
           3627.7      0.00949132
         3630.126     0.009131446
         3632.554     0.008785665
         3634.986     0.008448516
         3637.416     0.008119627
         3639.849     0.007798816
         3642.283     0.007486905
         3644.719     0.007186827
         3647.157      0.00689575
         3649.597     0.006609943
         3652.038     0.006335162
         3654.483     0.006072694
         3656.925     0.005814563
         3659.371     0.005564281
         3661.819     0.005324002
         3664.268     0.005091449
         3666.719     0.004867592
         3669.174     0.004652067
         3671.626     0.004447547
         3674.082     0.004247596
         3676.539     0.004056009
         3678.999     0.003873764
         3681.459     0.003698417
         3683.922     0.003540726
         3686.386     0.003383482
         3688.852     0.003229431
         3691.321     0.003083584
         3693.788       0.0029438
         3696.259     0.002813385
         3698.731     0.002688923
         3701.205     0.002569485
         3703.683     0.002451938
         3706.158     0.002343354
         3708.637     0.002236817
         3711.118     0.002135002
           3713.6     0.002038945
         3716.084     0.001947228
          3718.57     0.001860201
         3721.057     0.001776467
         3723.546     0.001697653
         3726.036     0.001619691
         3728.529     0.001544928
         3731.023     0.001474031
         3733.518     0.001404638
         3736.016      0.00134035
         3738.514     0.001279221
         3741.017     0.001220771
         3743.517     0.001163771
         3746.021     0.001106524
         3748.527     0.001049085
         3751.034     9.976577E-4
         3753.543     9.549179E-4
         3756.054     9.120258E-4
         3758.566     8.689851E-4
          3761.08     8.263587E-4
         3763.596     7.843252E-4
         3766.114     7.421508E-4
         3768.633     6.998315E-4
         3771.155     6.624248E-4
         3773.676     6.309763E-4
           3776.2     5.993945E-4
         3778.726     5.677034E-4
         3781.253     5.365020E-4
         3783.782     5.057977E-4
         3786.313     4.749908E-4
         3788.846     4.440754E-4
         3791.382     4.176217E-4
         3793.916     3.949556E-4
         3796.454     3.721947E-4
         3798.993     3.493559E-4
         3801.534     3.272164E-4
         3804.077     3.055155E-4
         3806.622     2.837403E-4
         3809.168     2.618906E-4
         3811.716     2.443368E-4
         3814.265     2.288478E-4
         3816.816     2.133059E-4
         3819.367     1.977231E-4
         3821.924     1.831669E-4
          3824.48     1.689357E-4
         3827.039     1.546550E-4
         3829.599     1.403275E-4
          3832.16     1.298399E-4
         3834.723     1.200408E-4
         3837.288     1.102085E-4
         3839.853     1.003514E-4
         3842.423     9.175966E-5
         3844.993     8.322628E-5
         3847.565     7.466328E-5
         3850.139     6.624279E-5
         3852.714     6.078927E-5
         3855.289     5.532156E-5
          3857.87     4.982666E-5
          3860.45     4.450469E-5
         3863.032     4.005238E-5
         3865.616     3.558479E-5
         3868.202     3.110231E-5
         3870.787     2.716714E-5
         3873.379     2.449195E-5
         3875.969     2.181013E-5
         3878.562     1.911936E-5
         3881.156     1.673610E-5
         3883.752     1.473928E-5
          3886.35     1.273565E-5
         3888.949     1.072559E-5
         3891.551     9.264455E-6
         3894.154     8.175719E-6
         3896.759     7.083384E-6
         3899.365     5.987441E-6
         3901.973     5.167112E-6
         3904.583     4.434127E-6
         3907.193     3.699287E-6
         3909.806     2.961418E-6
         3912.423     2.580999E-6
          3915.04     2.228489E-6
         3917.659     1.874796E-6
          3920.28     1.534499E-6
           3922.9     1.315057E-6
         3925.526     1.094555E-6
         3928.151     8.735039E-7
         3930.777     6.924648E-7
         3933.408     6.073902E-7
         3936.039     5.221034E-7
         3938.672     4.365404E-7
         3941.306     3.678399E-7
         3943.943     3.163620E-7
         3946.578     2.647672E-7
          3949.22     2.129213E-7
         3951.862     1.854952E-7
         3954.505     1.682821E-7
          3957.15     1.510124E-7
         3959.795     1.337034E-7
         3962.444     1.163211E-7
         3965.096     9.886932E-8
         3967.746     8.139153E-8
         3970.402     6.650367E-8
         3973.058     6.658636E-8
         3975.716     6.666916E-8
         3978.375     6.675207E-8
         3981.036     6.683478E-8
         3983.697     6.691707E-8
         3986.363     6.699960E-8
          3989.03     6.708219E-8
         3991.698     6.716407E-8
         3994.368     6.724558E-8
          3997.04     6.732720E-8
         3999.711     6.740888E-8
         4002.386     6.741034E-8
         4005.066     6.740204E-8
         4007.745     6.739369E-8
         4010.425     6.738524E-8
         4013.108     6.737609E-8
          4015.79     6.736692E-8
         4018.478     6.735772E-8
         4021.164     6.734813E-8
         4023.856     6.733807E-8
         4026.547     6.732797E-8
          4029.24     6.731784E-8
         4031.936     6.730718E-8
          4034.63     6.729626E-8
         4037.329     6.728530E-8
         4040.029     6.727432E-8
         4042.734     6.726253E-8
         4045.438     6.725072E-8
         4048.142     6.723891E-8
         4050.852     6.722679E-8
         4053.561     6.721413E-8
          4056.27     6.720144E-8
         4058.986     6.718870E-8
         4061.701     6.717551E-8
         4064.417     6.716199E-8
         4067.136     6.714845E-8
         4069.856     6.713489E-8
         4072.579     6.712056E-8
         4075.298     6.710617E-8
         4078.029     6.709171E-8
         4080.756     6.707705E-8
         4083.486     6.706184E-8
         4086.217     6.704661E-8
         4088.948     6.703134E-8
         4091.685     6.701593E-8
          4094.42     6.700044E-8
         4097.159     6.698492E-8
         4099.901     6.696936E-8
         4102.642     6.695252E-8
         4105.388     6.693558E-8
         4108.134     6.691864E-8
         4110.879     6.690161E-8
         4113.631     6.688443E-8
         4116.383     6.686723E-8
         4119.136     6.685000E-8
         4121.892     6.683187E-8
         4124.648     6.681334E-8
         4127.408     6.679475E-8
         4130.164     6.677613E-8
         4132.931     6.675729E-8
         4135.693     6.673846E-8
         4138.461     6.671954E-8
          4141.23     6.670057E-8
         4143.998     6.668150E-8
         4146.771     6.666238E-8
         4149.543     6.664326E-8
         4152.318     6.662300E-8
         4155.098     6.660248E-8
         4157.875     6.658197E-8
         4160.659     6.656136E-8
         4163.441     6.654065E-8
         4166.224     6.651995E-8
         4169.011     6.649920E-8
         4171.797     6.647794E-8
          4174.59     6.645637E-8
         4177.384     6.643477E-8
         4180.179     6.641313E-8
         4182.975     6.639137E-8
         4185.768     6.636963E-8
         4188.572     6.634777E-8
         4191.372     6.632562E-8
         4194.178     6.630302E-8
         4196.983     6.628044E-8
         4199.788     6.625781E-8
         4202.599     6.629725E-8
         4205.406     6.634168E-8
         4208.221     6.638624E-8
         4211.036     6.643079E-8
         4213.853     6.647532E-8
         4216.673     6.651990E-8
         4219.492     6.656450E-8
         4222.314     6.660855E-8
         4225.138     6.665254E-8
         4227.962     6.669653E-8
         4230.792     6.674060E-8
         4233.622     6.678463E-8
         4236.456     6.682871E-8
          4239.29     6.687281E-8
         4242.121     6.691638E-8
         4244.963     6.695995E-8
         4247.797     6.700343E-8
         4250.639     6.704700E-8
         4253.487     6.709061E-8
          4256.33     6.713416E-8
         4259.179     6.717782E-8
         4262.023     6.722090E-8
         4264.876     6.726392E-8
         4267.729     6.730695E-8
         4270.581     6.734996E-8
          4273.44     6.739304E-8
         4276.298     6.743613E-8
         4279.159     6.747925E-8
         4282.021     5.387577E-8
         4284.885     3.455749E-8
         4287.751     1.520497E-8
         4290.619     4.188459E-9
         4293.491     2.363273E-8
         4296.363     4.310143E-8
         4299.234     6.258796E-8
         4302.113     6.781931E-8
         4304.985     6.786126E-8
         4307.865     6.790331E-8
         4310.747     6.794538E-8
         4313.635     6.798747E-8
          4316.52     6.802956E-8
         4319.402     6.807158E-8
         4322.296     6.811374E-8
         4325.185     6.815580E-8
         4328.076     6.819793E-8
         4330.973     6.159935E-8
          4333.87     4.185621E-8
         4336.771     2.206198E-8
         4339.669     2.259969E-9
         4342.572     1.759641E-8
         4345.479     3.750703E-8
         4348.381     5.740168E-8
         4351.292     6.853280E-8
         4354.205     6.857388E-8
         4357.115     6.861490E-8
         4360.032     6.843815E-8
         4362.943     4.847745E-8
         4365.864     2.843218E-8
         4368.782     8.379335E-9
         4371.709              0.
         4374.633              0.
         4377.554              0.
         4380.487     3.359773E-9
         4383.415     2.355602E-8
         4386.344     4.379323E-8
         4389.278     6.408500E-8
         4392.217     6.911041E-8
         4395.157     6.915106E-8
         4398.094     6.919166E-8
         4401.036     6.587001E-8
          4403.98     5.634994E-8
         4406.923     4.682005E-8
         4409.873     3.725819E-8
          4412.82     3.654632E-8
         4415.774     3.623164E-8
         4418.728     3.591660E-8
         4421.681     3.560123E-8
         4424.642     3.528468E-8
         4427.599     3.496809E-8
          4430.56     3.465059E-8
         4433.528     3.433166E-8
         4436.489     3.401314E-8
         4439.461     3.369302E-8
         4442.428     3.337331E-8
         4445.397     3.305299E-8
         4448.371     3.273180E-8
         4451.346     3.240991E-8
         4454.324     3.208719E-8
         4457.303     3.176387E-8
         4460.287     3.143968E-8
         4463.271     3.111514E-8
         4466.253     3.079025E-8
         4469.243     3.046423E-8
         4472.232     3.013784E-8
         4475.224     2.981077E-8
         4478.217     2.948315E-8
          4481.21     2.915514E-8
          4484.21     2.882604E-8
         4487.207     2.849681E-8
         4490.208     2.816671E-8
         4493.212     2.783596E-8
         4496.217     2.750461E-8
         4499.229     2.717210E-8
         4502.234     2.710776E-8
         4505.246     2.713550E-8
         4508.259     2.716296E-8
         4511.274     2.719003E-8
         4514.292     2.721668E-8
         4517.312     2.724305E-8
         4520.335     2.726916E-8
         4523.359     2.729515E-8
         4526.382     2.732082E-8
         4529.413     2.734625E-8
         4532.439     2.737116E-8
         4535.471     2.739577E-8
         4538.507     2.742010E-8
         4541.543     2.744411E-8
         4544.581     2.746781E-8
         4547.618     2.749121E-8
          4550.66     2.751438E-8
         4553.704     2.753742E-8
          4556.75     2.756017E-8
         4559.803     2.758265E-8
         4562.848     2.760455E-8
         4565.899     2.762618E-8
         4568.954     2.764751E-8
          4572.01     2.766853E-8
         4575.068     2.768923E-8
         4578.128     2.770964E-8
         4581.193     2.772977E-8
         4584.257     2.774956E-8
         4587.321     2.776904E-8
         4590.392     2.778825E-8
         4593.459     2.780709E-8
         4596.532     2.782564E-8
         4599.606     2.784389E-8
         4602.686     2.780516E-8
         4605.764     2.775747E-8
         4608.842     2.770911E-8
         4611.928     2.765993E-8
          4615.01     2.761011E-8
         4618.097     2.755954E-8
         4621.186     2.750813E-8
         4624.277     2.745584E-8
         4627.373     2.740279E-8
         4630.465     2.734914E-8
         4633.563     2.729495E-8
         4636.662     2.724005E-8
         4639.763     2.718440E-8
         4642.867     2.712800E-8
         4645.975     2.707082E-8
          4649.08     2.701300E-8
         4652.192     2.695433E-8
         4655.301     2.689500E-8
         4658.415     2.683491E-8
         4661.531     2.677396E-8
         4664.651     2.671210E-8
         4667.771     2.664955E-8
         4670.891     2.658637E-8
         4674.018     2.652249E-8
         4677.142     2.645798E-8
          4680.27     2.639266E-8
         4683.401     2.632660E-8
         4686.533     2.625980E-8
          4689.67     2.619218E-8
         4692.805     2.612367E-8
         4695.944     2.605431E-8
         4699.085     2.598418E-8
         4702.228     2.592189E-8
         4705.373     2.586241E-8
         4708.523     2.580218E-8
          4711.67     2.574123E-8
         4714.821     2.567943E-8
         4717.975     2.561692E-8
         4721.131     2.555381E-8
         4724.289     2.549015E-8
         4727.449     2.542579E-8
         4730.613     2.536062E-8
         4733.775     2.529465E-8
         4736.944     2.522785E-8
          4740.11     2.516046E-8
          4743.28     2.509254E-8
         4746.453     2.502389E-8
         4749.628     2.495453E-8
         4752.805     2.488427E-8
         4755.984     2.481326E-8
         4759.165     2.474154E-8
         4762.348     2.466925E-8
         4765.534     2.459628E-8
         4768.721     2.452260E-8
         4771.911     2.444819E-8
         4775.103     2.437305E-8
         4778.297     2.429719E-8
         4781.493     2.422049E-8
         4784.691     2.414293E-8
         4787.892     2.406464E-8
         4791.094     2.398570E-8
         4794.299     2.390619E-8
         4797.505     2.382595E-8
         4800.717     2.373156E-8
         4803.926     2.359004E-8
         4807.139     2.344733E-8
         4810.354     2.330352E-8
         4813.572     2.315843E-8
         4816.792     2.301225E-8
         4820.014     2.286498E-8
         4823.237     2.271686E-8
         4826.463     2.256763E-8
         4829.692     2.241731E-8
         4832.922     2.226591E-8
         4836.155     2.211340E-8
          4839.39     2.195983E-8
         4842.627     2.180509E-8
         4845.866     2.164926E-8
         4849.107     2.149232E-8
         4852.351     2.133412E-8
         4855.596     2.117473E-8
         4858.844     2.101422E-8
         4862.094     2.085277E-8
         4865.349     2.069015E-8
         4868.601     2.052669E-8
         4871.857     2.036192E-8
         4875.116     2.019603E-8
         4878.377     2.002898E-8
          4881.64     1.986084E-8
         4884.905     1.969152E-8
         4888.175     1.952096E-8
         4891.442     1.934956E-8
         4894.714     1.917686E-8
         4897.988     1.900303E-8
         4901.264     1.888474E-8
         4904.542     1.885613E-8
         4907.823     1.882716E-8
         4911.105     1.879778E-8
         4914.391     1.876794E-8
         4917.678     1.873774E-8
         4920.967     1.870716E-8
         4924.259     1.867623E-8
         4927.552     1.864494E-8
         4930.848     1.861328E-8
         4934.146     1.858125E-8
         4937.447     1.854886E-8
          4940.75     1.851614E-8
         4944.054     1.848320E-8
         4947.361     1.844991E-8
         4950.667     1.841626E-8
         4953.981     1.838218E-8
         4957.295     1.834776E-8
         4960.611     1.831293E-8
         4963.929     1.827758E-8
          4967.25     1.824185E-8
         4970.572     1.820579E-8
         4973.896     1.816947E-8
         4977.224     1.813277E-8
         4980.553     1.809571E-8
         4983.884     1.805829E-8
         4987.218     1.802049E-8
         4990.554     1.798231E-8
         4993.892     1.794376E-8
         4997.232     1.790481E-8
         5000.575     1.788932E-8
         5003.919     1.798866E-8
         5007.267     1.808836E-8
         5010.616     1.818840E-8
         5013.967     1.828876E-8
         5017.318     1.838940E-8
         5020.677     1.849058E-8
         5024.035     1.859223E-8
         5027.396     1.869422E-8
         5030.758     1.879654E-8
         5034.123     1.889905E-8
         5037.491     1.900194E-8
         5040.857     1.910513E-8
         5044.232     1.920896E-8
         5047.605     1.931305E-8
         5050.982     1.941748E-8
          5054.36     1.952213E-8
         5057.741     1.962716E-8
         5061.124     1.973258E-8
         5064.509     1.983849E-8
         5067.894     1.994468E-8
         5071.287     2.005143E-8
         5074.679     2.015847E-8
         5078.073     2.026586E-8
          5081.47     2.037352E-8
         5084.866     2.048132E-8
          5088.27     2.058965E-8
         5091.673     2.069839E-8
         5095.079     2.080763E-8
         5098.487     2.091725E-8
         5101.897     2.103654E-8
          5105.31     2.116372E-8
         5108.725     2.129136E-8
         5112.142     2.141952E-8
         5115.562     2.154816E-8
         5118.983     2.167726E-8
         5122.407     2.180683E-8
         5125.833     2.193684E-8
         5129.262     2.206732E-8
         5132.693     2.219815E-8
         5136.126     2.232941E-8
         5139.562     2.246115E-8
         5142.996     2.259340E-8
         5146.439     2.272639E-8
         5149.881     2.285975E-8
         5153.326     2.299365E-8
         5156.773     2.312802E-8
         5160.222     2.326288E-8
         5163.674     2.339818E-8
         5167.128     2.353397E-8
         5170.584     2.367025E-8
         5174.042     2.380705E-8
           5177.5     2.394423E-8
         5180.966     2.408205E-8
         5184.432     2.422004E-8
           5187.9     2.435851E-8
          5191.37     2.449755E-8
         5194.842     2.463725E-8
         5198.317     2.477744E-8
         5201.794     2.482349E-8
         5205.273     2.478045E-8
         5208.755     2.473688E-8
         5212.236     2.469297E-8
         5215.726     2.464854E-8
         5219.214     2.460360E-8
         5222.705     2.455796E-8
         5226.199     2.451171E-8
         5229.694     2.446494E-8
         5233.192     2.441761E-8
         5236.692     2.436976E-8
         5240.195     2.432135E-8
           5243.7     2.427240E-8
         5247.205     2.422294E-8
         5250.718     2.417292E-8
         5254.229     2.412260E-8
         5257.744     2.407173E-8
         5261.261     2.402014E-8
         5264.777     2.396768E-8
         5268.302     2.391461E-8
         5271.825     2.386116E-8
         5275.352     2.380729E-8
          5278.88     2.375286E-8
         5282.408     2.369793E-8
         5285.944     2.364235E-8
          5289.48     2.358626E-8
         5293.018     2.352939E-8
         5296.559     2.347192E-8
         5300.099     2.341206E-8
         5303.646     2.328551E-8
         5307.194     2.315814E-8
         5310.744     2.302990E-8
         5314.293     2.290101E-8
         5317.848     2.277110E-8
         5321.408     2.263996E-8
         5324.967     2.250773E-8
         5328.529     2.237458E-8
         5332.093     2.224060E-8
         5335.657     2.210585E-8
         5339.229     2.196996E-8
           5342.8     2.183323E-8
         5346.374     2.169556E-8
         5349.947     2.155705E-8
         5353.525     2.141731E-8
         5357.109     2.127649E-8
         5360.689     2.113495E-8
         5364.275     2.099229E-8
         5367.866     2.084857E-8
         5371.454     2.070405E-8
         5375.049     2.055824E-8
         5378.642     2.041172E-8
         5382.242     2.026410E-8
         5385.839     2.011581E-8
         5389.442     1.996644E-8
          5393.05     1.981580E-8
         5396.654     1.966441E-8
         5400.264     1.951605E-8
         5403.879     1.941940E-8
          5407.49     1.932224E-8
          5411.11     1.922422E-8
         5414.727     1.912568E-8
         5418.352     1.902629E-8
         5421.976     1.892619E-8
         5425.596     1.882547E-8
         5429.231     1.872372E-8
          5432.86     1.862154E-8
         5436.494     1.851859E-8
         5440.133     1.841485E-8
         5443.772     1.831051E-8
         5447.413     1.820547E-8
         5451.054     1.809977E-8
         5454.703     1.799303E-8
         5458.352     1.788570E-8
            5462.     1.777777E-8
         5465.656     1.766896E-8
         5469.309     1.755964E-8
         5472.967     1.744933E-8
         5476.628     1.733831E-8
         5480.294     1.722649E-8
          5483.96     1.711404E-8
         5487.622     1.700111E-8
         5491.298     1.688707E-8
         5494.971     1.677253E-8
         5498.644     1.665736E-8
         5502.325     1.662358E-8
         5506.002     1.663760E-8
         5509.685     1.665155E-8
         5513.371     1.666538E-8
         5517.061     1.667914E-8
         5520.751     1.669282E-8
         5524.438     1.670641E-8
         5528.139     1.671996E-8
         5531.837     1.673333E-8
         5535.534     1.674652E-8
          5539.24     1.675965E-8
         5542.942     1.677254E-8
         5546.652     1.678534E-8
         5550.359     1.679807E-8
         5554.075     1.681090E-8
          5557.79     1.682364E-8
         5561.501     1.683622E-8
         5565.228     1.684865E-8
          5568.95     1.686097E-8
         5572.672     1.687322E-8
         5576.402     1.688542E-8
         5580.129     1.689751E-8
         5583.865     1.690935E-8
         5587.597     1.692110E-8
         5591.334     1.693278E-8
         5595.074     1.694439E-8
         5598.813     1.695591E-8
         5602.562     1.703197E-8
         5606.309     1.713806E-8
         5610.062     1.724451E-8
         5613.808     1.735093E-8
         5617.566     1.745788E-8
         5621.327     1.756497E-8
         5625.083     1.767197E-8
         5628.846     1.777932E-8
         5632.614     1.788702E-8
         5636.375     1.799472E-8
         5640.146     1.810284E-8
         5643.918     1.821117E-8
         5647.696     1.831981E-8
         5651.474     1.842866E-8
         5655.254     1.853778E-8
         5659.037     1.864715E-8
         5662.825     1.875685E-8
         5666.607     1.886654E-8
           5670.4     1.897672E-8
         5674.193     1.908677E-8
         5677.988     1.919710E-8
         5681.786     1.930770E-8
          5685.59     1.941868E-8
         5689.387     1.952963E-8
         5693.192     1.964094E-8
            5697.     1.975248E-8
         5700.814     1.987731E-8
         5704.627     2.004998E-8
         5708.443     2.022309E-8
         5712.264     2.039673E-8
         5716.079     2.057035E-8
         5719.902     2.074467E-8
         5723.728     2.091934E-8
          5727.56     2.109455E-8
         5731.391     2.127006E-8
         5735.228     2.144618E-8
         5739.063     2.162255E-8
         5742.896     2.179881E-8
         5746.737     2.197570E-8
         5750.584     2.215319E-8
         5754.431     2.233118E-8
          5758.28     2.250961E-8
         5762.131     2.268846E-8
         5765.982     2.286758E-8
         5769.839     2.304727E-8
         5773.699     2.322704E-8
         5777.561     2.340720E-8
         5781.428     2.358804E-8
         5785.295     2.376936E-8
         5789.165     2.395110E-8
         5793.034     2.413283E-8
         5796.909     2.431504E-8
         5800.786     2.451673E-8
         5804.669     2.479418E-8
         5808.552     2.507208E-8
         5812.438     2.535039E-8
         5816.325     2.562921E-8
         5820.212     2.590849E-8
         5824.105     2.618895E-8
         5828.001     2.647007E-8
         5831.902     2.675193E-8
         5835.803     2.703407E-8
         5839.707     2.731685E-8
         5843.609     2.760044E-8
         5847.518     2.788497E-8
          5851.43     2.817003E-8
         5855.343     2.845542E-8
         5859.263     2.874175E-8
         5863.182     2.902877E-8
         5867.104     2.931656E-8
         5871.025     2.960477E-8
         5874.952     2.989384E-8
         5878.882     3.018361E-8
         5882.814     3.047408E-8
         5886.752     3.076551E-8
          5890.69     3.105735E-8
          5894.63     3.134978E-8
          5898.57     3.164270E-8
         5902.515     3.183427E-8
         5906.463     3.196802E-8
         5910.414     3.210213E-8
         5914.371     3.223696E-8
         5918.327     3.237196E-8
         5922.285     3.250694E-8
         5926.243     3.264187E-8
         5930.207     3.277722E-8
         5934.174     3.291324E-8
         5938.143     3.304953E-8
         5942.118     3.318619E-8
         5946.093     3.332300E-8
         5950.066     3.345995E-8
         5954.046     3.359720E-8
         5958.029     3.373472E-8
         5962.014     3.387275E-8
         5966.002     3.401125E-8
         5969.996     3.415018E-8
         5973.989     3.428873E-8
         5977.982     3.442744E-8
          5981.98     3.456675E-8
         5985.981     3.470658E-8
         5989.985     3.484668E-8
         5993.995     3.498712E-8
         5998.004     3.512774E-8
         6002.017     3.512558E-8
         6006.028     3.498192E-8
         6010.045     3.483801E-8
         6014.065     3.469437E-8
         6018.088     3.455059E-8
         6022.113     3.440661E-8
         6026.145     3.426235E-8
         6030.172     3.411818E-8
         6034.206     3.397374E-8
         6038.242     3.382917E-8
         6042.281     3.368442E-8
         6046.322     3.353951E-8
          6050.37     3.339438E-8
         6054.417     3.324948E-8
         6058.463     3.310456E-8
         6062.516     3.295913E-8
          6066.57     3.281344E-8
         6070.628     3.266764E-8
         6074.689     3.252202E-8
         6078.752     3.237627E-8
         6082.821     3.223015E-8
         6086.887     3.208409E-8
         6090.958     3.193778E-8
         6095.032     3.179136E-8
         6099.109     3.164479E-8
         6103.188     3.148017E-8
         6107.274     3.131023E-8
         6111.356     3.114040E-8
         6115.444     3.097023E-8
         6119.534     3.079991E-8
         6123.627     3.062946E-8
         6127.724     3.045884E-8
         6131.822     3.028801E-8
         6135.927     3.011682E-8
         6140.028     2.994572E-8
         6144.135     2.977468E-8
         6148.245     2.960346E-8
         6152.357     2.943185E-8
         6156.472     2.925988E-8
          6160.59     2.908777E-8
         6164.711     2.891551E-8
         6168.834     2.874311E-8
          6172.96     2.857046E-8
         6177.089     2.839763E-8
         6181.221     2.822460E-8
         6185.355     2.805140E-8
         6189.493     2.787802E-8
         6193.633     2.770452E-8
         6197.776     2.753085E-8
         6201.921     2.750583E-8
         6206.069     2.765317E-8
         6210.221     2.780065E-8
         6214.375     2.794789E-8
         6218.531     2.809526E-8
         6222.691     2.824305E-8
         6226.853     2.839110E-8
         6231.018     2.853917E-8
         6235.186     2.868702E-8
         6239.356     2.883501E-8
          6243.53     2.898342E-8
         6247.706     2.913203E-8
         6251.885     2.928062E-8
         6256.066     2.942917E-8
         6260.251     2.957783E-8
         6264.438     2.972618E-8
         6268.629     2.987464E-8
         6272.822     3.002352E-8
         6277.018     3.017267E-8
         6281.216     3.032180E-8
         6285.417     3.047077E-8
         6289.622     3.061984E-8
         6293.829     3.076902E-8
         6298.039     3.091832E-8
         6302.251     3.113562E-8
         6306.466     3.141232E-8
         6310.685     3.168920E-8
         6314.906     3.196606E-8
          6319.13     3.224315E-8
         6323.356     3.252036E-8
         6327.586     3.279778E-8
         6331.818     3.307543E-8
         6336.054     3.335332E-8
         6340.292     3.363137E-8
         6344.533     3.390925E-8
         6348.776     3.418733E-8
         6353.023     3.446565E-8
         6357.272     3.474419E-8
         6361.524     3.502274E-8
          6365.78     3.530125E-8
         6370.038     3.557994E-8
         6374.298     3.585886E-8
         6378.562     3.613799E-8
         6382.829     3.641733E-8
         6387.098     3.669687E-8
          6391.37     3.697645E-8
         6395.645     3.725588E-8
         6399.923     3.753552E-8
         6404.204     3.776195E-8
         6408.487     3.798750E-8
         6412.774     3.821324E-8
         6417.063     3.843915E-8
         6421.355     3.866502E-8
         6425.651     3.889073E-8
         6429.949     3.911654E-8
          6434.25     3.934241E-8
         6438.553     3.956843E-8
          6442.86     3.979432E-8
         6447.169     4.002020E-8
         6451.482     4.024622E-8
         6455.797     4.047241E-8
         6460.115     4.069867E-8
         6464.437     4.092405E-8
          6468.76     4.114954E-8
         6473.087     4.137515E-8
         6477.417     4.160091E-8
          6481.75     4.182677E-8
         6486.085     4.205274E-8
         6490.423     4.227874E-8
         6494.765     4.250387E-8
         6499.109     4.272912E-8
         6503.456     4.321145E-8
         6507.806     4.375919E-8
         6512.159     4.430572E-8
         6516.515     4.485095E-8
         6520.874     4.539513E-8
         6525.235     4.593776E-8
           6529.6     4.647939E-8
         6533.967     4.701947E-8
         6538.338     4.755853E-8
         6542.711     4.809660E-8
         6547.087     4.863358E-8
         6551.467     4.916936E-8
         6555.849     4.970357E-8
         6560.234     5.023677E-8
         6564.622     5.076906E-8
         6569.013     5.130023E-8
         6573.407     5.182927E-8
         6577.804     5.235692E-8
         6582.203     5.288381E-8
         6586.606     5.341008E-8
         6591.012     5.393510E-8
          6595.42     5.445856E-8
         6599.832     5.498090E-8
         6604.247     5.609043E-8
         6608.664     5.722086E-8
         6613.084     5.834869E-8
         6617.507     5.947402E-8
         6621.934     6.059751E-8
         6626.363     6.171909E-8
         6630.795     6.283807E-8
          6635.23     6.395339E-8
         6639.669     6.506647E-8
          6644.11     6.617807E-8
         6648.554     6.728753E-8
         6653.001     6.839329E-8
         6657.451     6.949617E-8
         6661.904     7.059708E-8
          6666.36     7.169624E-8
         6670.819     7.279284E-8
         6675.281     7.388640E-8
         6679.746     7.497751E-8
         6684.214     7.606634E-8
         6688.685     7.715263E-8
         6693.159     7.823593E-8
         6697.636     7.931636E-8
         6702.116     9.810568E-8
         6706.599     1.366341E-7
         6711.084     1.837176E-7
         6715.574     2.577741E-7
         6720.065     3.316691E-7
         6724.561     4.054193E-7
         6729.058     4.790077E-7
         6733.559     5.524444E-7
         6738.063     6.257234E-7
         6742.566     6.987912E-7
          6747.08     7.718215E-7
         6751.593     8.707236E-7
         6756.109     1.017165E-6
         6760.628     1.173558E-6
          6765.15     1.393100E-6
         6769.675     1.612139E-6
           6774.2     1.898837E-6
         6778.734     2.190663E-6
         6783.269     2.534603E-6
         6787.806     2.898281E-6
         6792.346     3.261198E-6
         6796.889     3.623278E-6
         6801.436     4.054017E-6
         6805.981     4.633695E-6
         6810.538     5.221658E-6
         6815.093     5.872304E-6
         6819.651     6.521565E-6
         6824.213     7.439115E-6
         6828.777     8.376914E-6
         6833.341     9.311917E-6
         6837.912     1.024562E-5
         6842.489     1.141560E-5
         6847.066     1.278129E-5
         6851.646     1.416986E-5
         6856.229     1.560196E-5
         6860.815     1.710814E-5
           6865.4     1.896702E-5
         6869.996     2.082457E-5
         6874.591     2.274914E-5
          6879.19     2.466955E-5
         6883.791     2.706178E-5
         6888.396     2.955051E-5
         6893.003     3.198647E-5
          6897.61     3.438991E-5
         6902.224     3.710213E-5
         6906.844     4.014599E-5
         6911.464     4.313473E-5
         6916.087     4.601902E-5
         6920.713     4.898508E-5
         6925.342     5.242990E-5
          6929.97     5.586407E-5
         6934.609     5.894061E-5
         6939.248     6.200535E-5
          6943.89     6.548184E-5
         6948.534     6.903100E-5
         6953.182     7.227836E-5
         6957.829     7.538094E-5
         6962.483     7.870725E-5
         6967.144     8.222857E-5
         6971.804     8.560116E-5
         6976.467     8.874811E-5
         6981.134     9.197381E-5
         6985.803     9.546070E-5
         6990.472     9.890792E-5
         6995.148     1.020948E-4
         6999.827     1.052739E-4
         7004.513     1.089163E-4
         7009.198     1.125591E-4
         7013.886     1.159526E-4
         7018.578     1.192837E-4
         7023.268     1.230891E-4
         7027.966     1.270960E-4
         7032.671     1.308924E-4
         7037.375     1.345200E-4
         7042.082     1.381937E-4
         7046.792     1.419291E-4
         7051.502     1.458695E-4
         7056.218     1.502717E-4
         7060.938     1.545736E-4
         7065.661     1.585252E-4
         7070.391     1.624980E-4
          7075.12     1.668316E-4
         7079.853     1.711477E-4
         7084.584     1.748428E-4
         7089.323     1.785061E-4
         7094.065     1.824507E-4
         7098.814     1.864317E-4
         7103.563     1.898798E-4
         7108.313     1.931422E-4
         7113.068     1.964795E-4
         7117.822     1.998479E-4
         7122.583     2.026883E-4
         7127.347     2.050817E-4
         7132.119     2.074679E-4
         7136.889     2.098432E-4
         7141.663     2.118537E-4
         7146.432     2.131916E-4
         7151.216     2.144925E-4
         7155.999     2.156880E-4
         7160.786     2.167782E-4
          7165.58     2.173592E-4
         7170.372     2.179048E-4
         7175.168     2.180802E-4
         7179.964     2.182532E-4
         7184.766     2.177602E-4
         7189.572     2.172624E-4
         7194.381     2.162844E-4
         7199.197     2.152607E-4
         7204.013     2.140752E-4
         7208.831     2.128597E-4
         7213.645     2.114002E-4
         7218.474     2.098614E-4
         7223.302     2.081059E-4
         7228.134     2.062530E-4
         7232.973     2.040800E-4
         7237.811     2.017128E-4
         7242.644     1.994305E-4
         7247.492     1.972109E-4
          7252.34     1.946857E-4
         7257.191     1.918331E-4
         7262.045     1.890448E-4
         7266.907     1.863392E-4
         7271.768     1.835050E-4
         7276.624     1.804411E-4
         7281.495     1.773796E-4
         7286.365     1.743297E-4
         7291.239     1.712256E-4
         7296.116     1.679433E-4
            7301.     1.647095E-4
         7305.883     1.616427E-4
         7310.762     1.585223E-4
         7315.656     1.550311E-4
         7320.549     1.515765E-4
         7325.446     1.483017E-4
          7330.35     1.450136E-4
         7335.253     1.414482E-4
         7340.151     1.379115E-4
         7345.061     1.346881E-4
         7349.978     1.314739E-4
         7354.894     1.278360E-4
         7359.814     1.242092E-4
         7364.737     1.211412E-4
         7369.667     1.181033E-4
         7374.588     1.146175E-4
         7379.521     1.111046E-4
         7384.461     1.079981E-4
           7389.4     1.049480E-4
         7394.343     1.016370E-4
         7399.293     9.829780E-5
         7404.242     9.529367E-5
         7409.187     9.235878E-5
         7414.143     8.922278E-5
         7419.105     8.605582E-5
         7424.068     8.325718E-5
         7429.034     8.054672E-5
         7434.007     7.764762E-5
         7438.971     7.471989E-5
         7443.947     7.208782E-5
         7448.926     6.954140E-5
         7453.913     6.686029E-5
         7458.898     6.415250E-5
         7463.888     6.173859E-5
         7468.884     5.941226E-5
         7473.872     5.700692E-5
         7478.871     5.458009E-5
         7483.877     5.244089E-5
         7488.883     5.039293E-5
         7493.893     4.821359E-5
         7498.905     4.600276E-5
         7503.921     4.412840E-5
         7508.936     4.235392E-5
         7513.958     4.044396E-5
         7518.989     3.850185E-5
         7524.018     3.680632E-5
         7529.051     3.517697E-5
         7534.086     3.350610E-5
          7539.13     3.182899E-5
         7544.165     3.040645E-5
         7549.211     2.903787E-5
         7554.265     2.762396E-5
         7559.317     2.620768E-5
         7564.374     2.494905E-5
         7569.433     2.371910E-5
         7574.492     2.249499E-5
         7579.559     2.127480E-5
         7584.633     2.032436E-5
         7589.706     1.940379E-5
         7594.782     1.837772E-5
         7599.862     1.734896E-5
         7604.946     1.649303E-5
         7610.028     1.564628E-5
         7615.119     1.485949E-5
         7620.212     1.407826E-5
         7625.313     1.335467E-5
         7630.414     1.263922E-5
         7635.518     1.197929E-5
         7640.625     1.133596E-5
         7645.731     1.079574E-5
         7650.846     1.024785E-5
         7655.967     9.654380E-6
         7661.088     9.099984E-6
         7666.212     8.681478E-6
          7671.34     8.249930E-6
         7676.467     7.778940E-6
         7681.602     7.344611E-6
          7686.74     6.989398E-6
         7691.886     6.635323E-6
         7697.031     6.283029E-6
         7702.179     5.955847E-6
         7707.331     5.662184E-6
         7712.482     5.370000E-6
         7717.641     5.078798E-6
         7722.803     4.818920E-6
         7727.973     4.585230E-6
         7733.142     4.352722E-6
         7738.314     4.121177E-6
          7743.49     3.927742E-6
         7748.666     3.753142E-6
         7753.849     3.579133E-6
         7759.035     3.405879E-6
         7764.229     3.233207E-6
         7769.422     3.061420E-6
         7774.619     2.890374E-6
         7779.815     2.720209E-6
         7785.019     2.602892E-6
         7790.226     2.488010E-6
         7795.437     2.373613E-6
         7800.655     2.259623E-6
         7805.873     2.146217E-6
         7811.094     2.033303E-6
         7816.314     1.920977E-6
         7821.543     1.824818E-6
         7826.774     1.766700E-6
          7832.01     1.708825E-6
         7837.252     1.651156E-6
         7842.495     1.593779E-6
         7847.741     1.536647E-6
         7852.985     1.479815E-6
         7858.238     1.423177E-6
         7863.494     1.331809E-6
         7868.754     1.223236E-6
         7874.021     1.195172E-6
         7879.289     1.192001E-6
         7884.554     1.143719E-6
         7889.828     1.088566E-6
         7895.105     9.872787E-7
         7900.386     8.906246E-7
         7905.675     8.668310E-7
         7910.963     8.431619E-7
         7916.254     8.195956E-7
         7921.545     7.961488E-7
         7926.844     7.727879E-7
         7932.146     7.495280E-7
         7937.452     7.263722E-7
         7942.761     7.033191E-7
         7948.078     6.803476E-7
         7953.394     6.575007E-7
          7958.71     6.347709E-7
         7964.033     6.121278E-7
          7969.36     5.895849E-7
         7974.691     5.671446E-7
         7980.025     5.448058E-7
         7985.367     5.225533E-7
         7990.704     5.004366E-7
         7996.048     4.784038E-7
         8001.397     4.593261E-7
         8006.749     4.484094E-7
         8012.104     4.375603E-7
         8017.468     4.267689E-7
         8022.831     4.160545E-7
         8028.193     4.054142E-7
         8033.563     3.948337E-7
         8038.936     3.843196E-7
         8044.313     3.738730E-7
         8049.694     3.634925E-7
         8055.078     3.531794E-7
          8060.47     3.429249E-7
         8065.857     3.327534E-7
         8071.252     3.226404E-7
         8076.651     3.125933E-7
         8082.054     3.026132E-7
         8087.459     2.927004E-7
         8092.874     2.828457E-7
         8098.287     2.730657E-7
         8103.699     2.664153E-7
         8109.119     2.612138E-7
         8114.543     2.560450E-7
         8119.971     2.509087E-7
         8125.402     2.458047E-7
         8130.837     2.407327E-7
         8136.276     2.356938E-7
         8141.718     2.306871E-7
         8147.164     2.257119E-7
         8152.613     2.207697E-7
         8158.066     2.158597E-7
         8163.523     2.109818E-7
         8168.988     2.061323E-7
         8174.448     2.013227E-7
         8179.916     1.965410E-7
         8185.387     1.917921E-7
         8190.862     1.870750E-7
         8196.341     1.823894E-7
         8201.823     1.783885E-7
         8207.313     1.757171E-7
         8212.799     1.730661E-7
         8218.292     1.704292E-7
         8223.789     1.678086E-7
          8229.29     1.652038E-7
         8234.794     1.626158E-7
         8240.303     1.600432E-7
         8245.814     1.574872E-7
         8251.329     1.549474E-7
         8256.849     1.524229E-7
         8262.371     1.499151E-7
         8267.898     1.474231E-7
         8273.429     1.449475E-7
         8278.962     1.424882E-7
           8284.5     1.400446E-7
         8290.041     1.376173E-7
         8295.586     1.352059E-7
         8301.135     1.329354E-7
         8306.688     1.311648E-7
         8312.244     1.294049E-7
         8317.804     1.276563E-7
         8323.367     1.259181E-7
         8328.935     1.241903E-7
         8334.506     1.224736E-7
          8340.08     1.207678E-7
         8345.659     1.190720E-7
         8351.241     1.174612E-7
         8356.827     1.161158E-7
         8362.417     1.147729E-7
         8368.011     1.134324E-7
         8373.607     1.120944E-7
         8379.208     1.107586E-7
         8384.813     1.094254E-7
         8390.422     1.080948E-7
         8396.034     1.067666E-7
         8401.649     1.053560E-7
          8407.27     1.037440E-7
         8412.893     1.021358E-7
          8418.52     1.005314E-7
         8424.151     9.893042E-8
         8429.786     9.733348E-8
         8435.424     9.574069E-8
         8441.066     9.415148E-8
         8446.713     9.256620E-8
         8452.362     9.098532E-8
         8458.016     8.940872E-8
         8463.674     8.783569E-8
         8469.335     8.626694E-8
            8475.     8.470239E-8
         8480.668     8.314233E-8
         8486.341     8.158629E-8
         8492.018     8.003460E-8
         8497.697     7.848756E-8
         8503.381     7.736394E-8
         8509.069     7.652792E-8
         8514.761     7.569388E-8
         8520.456     7.486164E-8
         8526.155     7.403128E-8
         8531.858     7.320278E-8
         8537.564     7.237632E-8
         8543.275     7.155167E-8
          8548.99     7.072895E-8
         8554.708     6.990837E-8
         8560.431     6.908965E-8
         8566.156     6.827312E-8
         8571.886     6.745860E-8
         8577.619     6.664621E-8
         8583.356     6.583571E-8
         8589.098     6.502718E-8
         8594.843     6.422128E-8
         8600.592     6.339476E-8
         8606.345     6.237183E-8
         8612.102     6.135226E-8
         8617.862     6.033606E-8
         8623.621     5.932437E-8
         8629.395     5.831427E-8
         8635.166     5.730870E-8
         8640.942     5.630649E-8
         8646.722     5.530807E-8
         8652.506     5.431056E-8
         8658.293     5.331373E-8
         8664.085     5.232066E-8
          8669.88     5.133174E-8
         8675.679     5.034686E-8
         8681.481     4.936601E-8
         8687.289     4.838905E-8
           8693.1     4.741636E-8
         8698.914     4.644782E-8
         8704.728     4.597556E-8
         8710.555     4.561649E-8
         8716.382     4.525823E-8
         8722.212     4.490060E-8
         8728.046     4.454357E-8
         8733.884     4.418715E-8
         8739.721     4.383163E-8
         8745.571     4.347610E-8
         8751.421     4.312151E-8
         8757.275     4.276753E-8
         8763.133     4.241425E-8
         8768.994     4.206161E-8
         8774.859     4.170965E-8
         8780.724     4.135865E-8
         8786.602     4.100775E-8
         8792.479     4.065777E-8
          8798.36     4.030855E-8
         8804.245     3.995845E-8
         8810.135     3.960840E-8
         8816.027     3.925918E-8
         8821.919     3.891100E-8
         8827.825     3.856293E-8
         8833.729     3.821597E-8
         8839.639     3.786972E-8
         8845.551     3.752438E-8
         8851.468     3.717976E-8
         8857.384     3.683621E-8
         8863.308     3.649326E-8
         8869.241     3.615079E-8
         8875.174     3.580946E-8
          8881.11     3.546898E-8
         8887.051     3.512937E-8
         8892.995     3.479064E-8
         8898.938     3.445303E-8
         8904.891     3.416483E-8
         8910.852     3.388746E-8
         8916.813     3.361070E-8
         8922.776     3.333441E-8
         8928.745     3.305849E-8
         8934.717     3.278308E-8
         8940.688     3.250829E-8
         8946.669     3.223371E-8
         8952.658     3.195784E-8
         8958.646     3.168086E-8
         8964.639     3.140434E-8
         8970.635     3.112841E-8
          8976.63     3.085323E-8
         8982.634     3.057839E-8
         8988.643     3.030408E-8
          8994.66     3.003009E-8
         9000.676     2.988198E-8
         9006.696     3.071741E-8
         9012.721     3.154345E-8
         9018.744     3.235939E-8
         9024.776     3.316650E-8
         9030.818     3.396481E-8
         9036.858     3.475272E-8
         9042.903     3.553108E-8
         9048.952     3.629969E-8
         9055.005     3.705848E-8
         9061.057     3.780678E-8
         9067.117     3.854570E-8
         9073.182     3.927460E-8
         9079.256     3.999411E-8
         9085.329     4.070287E-8
         9091.405     4.140130E-8
         9097.481     4.208903E-8
         9103.567     4.199983E-8
         9109.656     4.136936E-8
         9115.749     4.074221E-8
         9121.852     4.011784E-8
         9127.953     3.949740E-8
         9134.059     3.888037E-8
         9140.163     3.826727E-8
         9146.277     3.765712E-8
         9152.395     3.705055E-8
         9158.521     3.644692E-8
         9164.647     3.584736E-8
         9170.777     3.525142E-8
         9176.912     3.465901E-8
         9183.045     3.407080E-8
         9189.188     3.348569E-8
         9195.334     3.290430E-8
         9201.484     3.243956E-8
         9207.644     3.232994E-8
         9213.803     3.221837E-8
         9219.961     3.210486E-8
         9226.128     3.198917E-8
         9232.299     3.187143E-8
         9238.475     3.175158E-8
         9244.653     3.162968E-8
         9250.843     3.150513E-8
          9257.03     3.137599E-8
         9263.217     3.124485E-8
         9269.413     3.111147E-8
         9275.613     3.097599E-8
         9281.817     3.083840E-8
         9288.025     3.069870E-8
         9294.243     3.055670E-8
          9300.46     3.044492E-8
         9306.676     3.073121E-8
           9312.9     3.100898E-8
          9319.13     3.127798E-8
         9325.363     3.153812E-8
         9331.601     3.178937E-8
         9337.848     3.203191E-8
         9344.089     3.226506E-8
         9350.339     3.248932E-8
         9356.593     3.270450E-8
         9362.852     3.291055E-8
         9369.114     3.310739E-8
         9375.386     3.329507E-8
         9381.657     3.347333E-8
         9387.927     3.364218E-8
         9394.206     3.380161E-8
          9400.49     3.395757E-8
         9406.777     3.417474E-8
         9413.069     3.438084E-8
         9419.366     3.457579E-8
         9425.672     3.475975E-8
         9431.971     3.493226E-8
          9438.28     3.509383E-8
         9444.593     3.524390E-8
          9450.91     3.538259E-8
         9457.231     3.550997E-8
         9463.563     3.562593E-8
         9469.893     3.573021E-8
         9476.222     3.582259E-8
         9482.561     3.590335E-8
         9488.903     3.597233E-8
          9495.25     3.602959E-8
         9501.602     3.642571E-8
         9507.962     3.783953E-8
         9514.316     3.922014E-8
          9520.68     4.057078E-8
         9527.048     4.189076E-8
         9533.421     4.317984E-8
         9539.798     4.443784E-8
         9546.179     4.566493E-8
         9552.569     4.686214E-8
         9558.953     4.802645E-8
         9565.347     4.916096E-8
         9571.745     5.026483E-8
         9578.147     5.133797E-8
         9584.554     5.238020E-8
         9590.965     5.339173E-8
         9597.386     5.437342E-8
           9603.8     5.553116E-8
         9610.224     5.679702E-8
         9616.651     5.802499E-8
         9623.084     5.921522E-8
         9629.521     6.036759E-8
         9635.962     6.148237E-8
         9642.407     6.255937E-8
         9648.856     6.359861E-8
         9655.311     6.460031E-8
         9661.769     6.556434E-8
         9668.231     6.649094E-8
         9674.698     6.737994E-8
         9681.169     6.823143E-8
          9687.64     6.904494E-8
         9694.125     6.982235E-8
         9700.609     7.070030E-8
         9707.098     7.285752E-8
         9713.591     7.494217E-8
         9720.088     7.695401E-8
         9726.589     7.889303E-8
         9733.095     8.075985E-8
         9739.605     8.255449E-8
          9746.12     8.427648E-8
         9752.639     8.591434E-8
         9759.162     8.746206E-8
          9765.69     8.893650E-8
         9772.217     9.033656E-8
         9778.753     9.166500E-8
           9785.3     9.292194E-8
         9791.845     9.410511E-8
         9798.395     9.521592E-8
         9804.948     9.757579E-8
         9811.507     1.002463E-7
         9818.063     1.027899E-7
         9824.631     1.052117E-7
         9831.208     1.075114E-7
         9837.784     1.096855E-7
         9844.364     1.117361E-7
         9850.949     1.136639E-7
         9857.538     1.154688E-7
         9864.126     1.171499E-7
         9870.729     1.187117E-7
         9877.332     1.201503E-7
         9883.938     1.214673E-7
          9890.55     1.226633E-7
         9897.165     1.237384E-7
         9903.779     1.256280E-7
         9910.404     1.280532E-7
         9917.033     1.302971E-7
         9923.672     1.323606E-7
          9930.31     1.342412E-7
         9936.952     1.359415E-7
         9943.599     1.374621E-7
         9950.244     1.388028E-7
         9956.899     1.399650E-7
         9963.564     1.409498E-7
         9970.229     1.417561E-7
         9976.898     1.423851E-7
         9983.571     1.428378E-7
         9990.249     1.431148E-7
         9996.926     1.432156E-7
         10003.61     1.311787E-7
          10010.3     1.126068E-7
           10017.     1.612494E-7
          10023.7     1.809884E-7
         10030.42     1.815480E-7
         10037.11     2.321105E-7
         10043.83     2.120417E-7
         10050.55     1.466925E-7
         10057.27     1.443196E-7
           10064.     1.568842E-7
         10070.73     1.768851E-7
         10077.47     1.787960E-7
          10084.2     1.924969E-7
         10090.95     2.087739E-7
          10097.7     2.005265E-7
         10104.45     1.864576E-7
         10111.21     1.705267E-7
         10117.97     1.586682E-7
         10124.75     1.804960E-7
         10131.51     2.067641E-7
         10138.29     2.029059E-7
         10145.07     2.082492E-7
         10151.86     2.108070E-7
         10158.65     1.988345E-7
         10165.44     2.088631E-7
         10172.25     2.136173E-7
         10179.05     1.981697E-7
         10185.86     2.019665E-7
         10192.67     2.126566E-7
         10199.49     2.291293E-7
         10206.31     2.225895E-7
         10213.14     2.174616E-7
         10219.97     2.159215E-7
          10226.8     2.334118E-7
         10233.64     2.216284E-7
         10240.49     1.899836E-7
         10247.34     2.124307E-7
         10254.19     2.300518E-7
         10261.05     2.413285E-7
         10267.91     2.353056E-7
         10274.78     2.274324E-7
         10281.66     2.195301E-7
         10288.53     2.137318E-7
         10295.41     2.158753E-7
          10302.3     2.180820E-7
         10309.19     2.167139E-7
         10316.09     2.232764E-7
         10322.99     2.292246E-7
         10329.89     2.332446E-7
          10336.8     2.054603E-7
         10343.72     1.972401E-7
         10350.63     2.047754E-7
         10357.56     2.114514E-7
         10364.49     2.040665E-7
         10371.42     1.938348E-7
         10378.36     1.990100E-7
          10385.3     1.982707E-7
         10392.24     1.919465E-7
          10399.2     1.782804E-7
         10406.15     1.861321E-7
         10413.11     1.846344E-7
         10420.08     1.700241E-7
         10427.05     1.689350E-7
         10434.02     1.644497E-7
           10441.     1.566919E-7
         10447.98     1.432117E-7
         10454.97     1.463038E-7
         10461.96     1.504524E-7
         10468.96     1.437144E-7
         10475.97     1.375879E-7
         10482.97     1.281454E-7
         10489.98     1.148258E-7
           10497.     1.174714E-7
         10504.02     1.154254E-7
         10511.05     1.109812E-7
         10518.08     1.077795E-7
         10525.11     1.075286E-7
         10532.15     1.081070E-7
          10539.2     1.081714E-7
         10546.25     1.076238E-7
          10553.3     1.087154E-7
         10560.36     1.113808E-7
         10567.42     1.087822E-7
         10574.49     1.110837E-7
         10581.57     1.141914E-7
         10588.64     1.109370E-7
         10595.73     1.113472E-7
         10602.81     1.114315E-7
         10609.91     1.098296E-7
           10617.     1.056226E-7
          10624.1     1.023748E-7
         10631.21     1.001769E-7
         10638.32     9.965184E-8
         10645.44     1.035531E-7
         10652.56     1.061791E-7
         10659.68     1.044278E-7
         10666.81     9.960826E-8
         10673.95     9.701388E-8
         10681.09     9.588872E-8
         10688.23     9.291646E-8
         10695.38     9.253319E-8
         10702.54     9.319851E-8
         10709.69     9.427665E-8
         10716.86     9.183854E-8
         10724.03     8.993097E-8
          10731.2     8.852412E-8
         10738.38     8.710109E-8
         10745.56     8.704564E-8
         10752.75     8.623434E-8
         10759.94     8.369414E-8
         10767.14     8.119223E-8
         10774.34     7.989586E-8
         10781.54     7.851737E-8
         10788.76     7.423348E-8
         10795.97     7.329272E-8
         10803.19     7.257535E-8
         10810.42     7.129893E-8
         10817.65     6.948243E-8
         10824.89     6.838875E-8
         10832.13     6.683640E-8
         10839.37     6.351100E-8
         10846.62     6.117045E-8
         10853.88     5.920525E-8
         10861.14     5.757903E-8
          10868.4     5.650734E-8
         10875.67     5.506809E-8
         10882.95     5.352597E-8
         10890.23     5.195316E-8
         10897.52     4.963771E-8
          10904.8     4.750257E-8
         10912.09     4.581951E-8
         10919.39     4.498795E-8
          10926.7     4.276182E-8
           10934.     4.030500E-8
         10941.32     3.822155E-8
         10948.64     3.804898E-8
         10955.96     3.533527E-8
         10963.29     3.284437E-8
         10970.62     3.121822E-8
         10977.96     2.982620E-8
          10985.3     2.851231E-8
         10992.65     2.654454E-8
           11000.     2.352048E-8
