#  Table crwfpc2comp$wfpc2_f702w_004.tab  Thu 08:19:10 15-May-97

# WAVELENGTH   THROUGHPUT        error
#  ANGSTROMS TRANSMISSION TRANSMISSION

      1850.0    5.5081E-6           0.
      1860.0    4.7368E-5           0.
      1870.0    1.7840E-5           0.
      1880.0    4.5710E-5           0.
      1890.0    3.4425E-5           0.
      1900.0    3.2285E-5           0.
      1910.0    9.5080E-6           0.
      1920.0    3.1029E-7           0.
      1930.0    1.0912E-5           0.
      1940.0    3.7486E-6           0.
      1950.0    3.1029E-7           0.
      1960.0    1.1491E-6           0.
      1970.0    8.4413E-7           0.
      1980.0    6.1656E-6           0.
      1990.0    7.0213E-6           0.
      2000.0    3.1029E-7           0.
      2010.0    3.1029E-7           0.
      2020.0    5.0656E-7           0.
      2030.0    1.1648E-6           0.
      2040.0    6.9723E-6           0.
      2050.0    3.1029E-7           0.
      2060.0    6.2647E-7           0.
      2070.0    4.9184E-7           0.
      2080.0    3.1029E-7           0.
      2090.0    1.6594E-6           0.
      2100.0    4.8457E-6           0.
      2110.0    3.2413E-6           0.
      2120.0    6.2147E-7           0.
      2130.0    3.1029E-7           0.
      2140.0    6.6249E-7           0.
      2150.0    2.4042E-6           0.
      2160.0    1.1776E-6           0.
      2170.0    3.1029E-7           0.
      2180.0    1.5731E-6           0.
      2190.0    3.9547E-7           0.
      2200.0    4.0391E-7           0.
      2210.0    3.1029E-7           0.
      2220.0    9.7592E-7           0.
      2230.0    1.9185E-6           0.
      2240.0    4.1549E-7           0.
      2250.0    6.9153E-7           0.
      2260.0    8.6856E-7           0.
      2270.0    1.8684E-6           0.
      2280.0    1.3856E-6           0.
      2290.0    1.4249E-6           0.
      2300.0    4.8614E-7           0.
      2310.0    3.1029E-7           0.
      2320.0    3.7663E-7           0.
      2330.0    4.5906E-7           0.
      2340.0    3.1883E-7           0.
      2350.0    3.5857E-7           0.
      2360.0    4.2462E-7           0.
      2370.0    3.1029E-7           0.
      2380.0    4.5867E-7           0.
      2390.0    8.8368E-7           0.
      2400.0    1.9842E-6           0.
      2410.0    1.9881E-6           0.
      2420.0    8.2872E-7           0.
      2430.0    3.7369E-7           0.
      2440.0    1.0147E-6           0.
      2450.0    4.4218E-7           0.
      2460.0    6.8359E-7           0.
      2470.0    4.9095E-7           0.
      2480.0    6.0979E-7           0.
      2490.0    3.1765E-7           0.
      2500.0    3.2276E-7           0.
      2510.0    3.1893E-7           0.
      2520.0    7.1518E-7           0.
      2530.0    3.6721E-7           0.
      2540.0    5.2255E-7           0.
      2550.0    3.7771E-7           0.
      2560.0    3.4415E-7           0.
      2570.0    1.2119E-6           0.
      2580.0    1.1687E-6           0.
      2590.0    3.1029E-7           0.
      2600.0    7.4924E-7           0.
      2610.0    1.4739E-6           0.
      2620.0    8.9369E-7           0.
      2630.0    1.7320E-6           0.
      2640.0    4.6514E-7           0.
      2650.0    7.3236E-7           0.
      2660.0    5.0970E-7           0.
      2670.0    7.4570E-7           0.
      2680.0    6.3638E-7           0.
      2690.0    1.4082E-6           0.
      2700.0    3.1029E-7           0.
      2710.0    9.9015E-7           0.
      2720.0    1.0343E-6           0.
      2730.0    3.8291E-7           0.
      2740.0    3.1029E-7           0.
      2750.0    7.1234E-7           0.
      2760.0    9.5384E-7           0.
      2770.0    3.1029E-7           0.
      2780.0    3.1510E-7           0.
      2790.0    4.3443E-7           0.
      2800.0    4.1284E-7           0.
      2810.0    7.8927E-7           0.
      2820.0    1.1746E-6           0.
      2830.0    7.7710E-7           0.
      2840.0    7.7858E-7           0.
      2850.0    9.6297E-7           0.
      2860.0    3.1392E-7           0.
      2870.0    5.8800E-7           0.
      2880.0    9.7818E-7           0.
      2890.0    4.5759E-7           0.
      2900.0    7.7024E-7           0.
      2910.0    8.9192E-7           0.
      2920.0    4.2413E-7           0.
      2930.0    4.1304E-7           0.
      2940.0    1.6947E-6           0.
      2950.0    1.4357E-6           0.
      2960.0    5.4434E-7           0.
      2970.0    3.1029E-7           0.
      2980.0    4.1205E-7           0.
      2990.0    4.9851E-7           0.
      3000.0    3.9017E-7           0.
      3010.0    3.1029E-7           0.
      3020.0    4.7918E-7           0.
      3030.0    6.7142E-7           0.
      3040.0    7.1518E-7           0.
      3050.0    3.1029E-7           0.
      3060.0    3.1029E-7           0.
      3070.0    9.5806E-7           0.
      3080.0    1.4111E-6           0.
      3090.0    3.1029E-7           0.
      3100.0    9.8524E-7           0.
      3110.0    3.8458E-7           0.
      3120.0    3.1029E-7           0.
      3130.0    4.1147E-7           0.
      3140.0    3.1029E-7           0.
      3150.0    3.1029E-7           0.
      3160.0    3.1029E-7           0.
      3170.0    1.3169E-6           0.
      3180.0    3.1029E-7           0.
      3190.0    9.8112E-7           0.
      3200.0    5.6190E-7           0.
      3210.0    4.6966E-7           0.
      3220.0    4.3276E-7           0.
      3230.0    1.1099E-6           0.
      3240.0    3.5161E-7           0.
      3250.0    8.8515E-7           0.
      3260.0    3.7290E-7           0.
      3270.0    3.8301E-7           0.
      3280.0    3.2982E-7           0.
      3290.0    5.0616E-7           0.
      3300.0    3.1029E-7           0.
      3310.0    1.0637E-6           0.
      3320.0    3.1029E-7           0.
      3330.0    3.3826E-7           0.
      3340.0    5.2589E-7           0.
      3350.0    4.2609E-7           0.
      3360.0    9.2362E-7           0.
      3370.0    9.9604E-7           0.
      3380.0    4.6524E-7           0.
      3390.0    7.7504E-7           0.
      3400.0    6.6111E-7           0.
      3410.0    7.3991E-7           0.
      3420.0    1.0844E-6           0.
      3430.0    3.1029E-7           0.
      3440.0    2.9538E-6           0.
      3450.0    3.1029E-7           0.
      3460.0    3.1029E-7           0.
      3470.0    3.2550E-7           0.
      3480.0    6.6465E-7           0.
      3490.0    3.1029E-7           0.
      3500.0    6.1970E-7           0.
      3510.0    3.1029E-7           0.
      3520.0    3.5121E-7           0.
      3530.0    7.9467E-7           0.
      3540.0    3.1029E-7           0.
      3550.0    1.5367E-6           0.
      3560.0    2.4867E-6           0.
      3570.0    6.1519E-6           0.
      3580.0    1.1001E-6           0.
      3590.0    4.1392E-7           0.
      3600.0    1.1678E-6           0.
      3610.0    7.3059E-7           0.
      3620.0    6.0881E-7           0.
      3630.0    6.6003E-7           0.
      3640.0    3.6534E-7           0.
      3650.0    6.5768E-7           0.
      3660.0    3.1029E-7           0.
      3670.0    3.1029E-7           0.
      3680.0    3.1029E-7           0.
      3690.0    1.2895E-6           0.
      3700.0    1.0255E-6           0.
      3710.0    2.0333E-6           0.
      3720.0    1.3356E-6           0.
      3730.0    8.6297E-7           0.
      3740.0    3.1029E-7           0.
      3750.0    1.3042E-6           0.
      3760.0    5.7701E-7           0.
      3770.0    8.5453E-7           0.
      3780.0    1.4926E-6           0.
      3790.0    1.2983E-6           0.
      3800.0    4.7192E-7           0.
      3810.0    1.1050E-6           0.
      3820.0    1.4965E-6           0.
      3830.0    3.5376E-7           0.
      3840.0    3.1029E-7           0.
      3850.0    4.8192E-7           0.
      3860.0    8.9614E-7           0.
      3870.0    6.7122E-7           0.
      3880.0    1.2551E-6           0.
      3890.0    1.5466E-6           0.
      3900.0    8.2509E-7           0.
      3910.0    1.3640E-6           0.
      3920.0    2.4876E-6           0.
      3930.0    7.3658E-7           0.
      3940.0    3.9233E-7           0.
      3950.0    8.8554E-7           0.
      3960.0    1.8105E-6           0.
      3970.0    9.1410E-7           0.
      3980.0    8.8633E-7           0.
      3990.0    1.4043E-6           0.
      4000.0    4.9792E-7           0.
      4010.0    2.0519E-6           0.
      4020.0    1.0598E-6           0.
      4030.0    1.2698E-6           0.
      4040.0    1.4926E-6           0.
      4050.0    1.8959E-6           0.
      4060.0    1.0088E-6           0.
      4070.0    1.8272E-6           0.
      4080.0    1.4838E-6           0.
      4090.0    1.6996E-6           0.
      4100.0    1.1786E-6           0.
      4110.0    1.2051E-6           0.
      4120.0    1.2649E-6           0.
      4130.0    1.2168E-6           0.
      4140.0    1.5397E-6           0.
      4150.0    9.7612E-7           0.
      4160.0    1.4818E-6           0.
      4170.0    1.8724E-6           0.
      4180.0    1.8547E-6           0.
      4190.0    1.1305E-6           0.
      4200.0    7.5581E-7           0.
      4210.0    1.1354E-6           0.
      4220.0    1.2178E-6           0.
      4230.0    9.9604E-7           0.
      4240.0    1.9342E-6           0.
      4250.0    1.1854E-6           0.
      4260.0    3.1029E-7           0.
      4270.0    3.1029E-7           0.
      4280.0    3.1029E-7           0.
      4290.0    3.1029E-7           0.
      4300.0    3.1029E-7           0.
      4310.0    3.1029E-7           0.
      4320.0    3.1029E-7           0.
      4330.0    3.1029E-7           0.
      4340.0    3.1029E-7           0.
      4350.0    3.1029E-7           0.
      4360.0    3.1029E-7           0.
      4370.0    3.1029E-7           0.
      4380.0    3.1029E-7           0.
      4390.0    1.4317E-6           0.
      4400.0    2.3699E-5           0.
      4410.0    6.1421E-5           0.
      4420.0    8.0468E-5           0.
      4430.0    8.8691E-5           0.
      4440.0    7.9173E-5           0.
      4450.0    5.2393E-5           0.
      4460.0    3.1324E-5           0.
      4470.0    1.0461E-5           0.
      4480.0    4.1372E-6           0.
      4490.0    2.5171E-6           0.
      4500.0    2.4346E-6           0.
      4510.0    2.2963E-6           0.
      4520.0    2.4994E-6           0.
      4530.0    1.9881E-6           0.
      4540.0    2.1824E-6           0.
      4550.0    2.1295E-6           0.
      4560.0    1.6084E-6           0.
      4570.0    9.4344E-7           0.
      4580.0    7.2892E-7           0.
      4590.0    1.0245E-6           0.
      4600.0    6.3815E-7           0.
      4610.0    4.2148E-7           0.
      4620.0    5.3354E-7           0.
      4630.0    6.0371E-7           0.
      4640.0    4.1480E-7           0.
      4650.0    6.5768E-7           0.
      4660.0    6.5709E-7           0.
      4670.0    4.8850E-7           0.
      4680.0    4.8271E-7           0.
      4690.0    6.6268E-7           0.
      4700.0    6.7534E-7           0.
      4710.0    3.7192E-7           0.
      4720.0    3.1824E-7           0.
      4730.0    6.4698E-7           0.
      4740.0    6.7937E-7           0.
      4750.0    4.4336E-7           0.
      4760.0    5.5071E-7           0.
      4770.0    4.0558E-7           0.
      4780.0    4.3541E-7           0.
      4790.0    3.1029E-7           0.
      4800.0    3.1029E-7           0.
      4810.0    3.1029E-7           0.
      4820.0    3.1029E-7           0.
      4830.0    3.3080E-7           0.
      4840.0    4.5965E-7           0.
      4850.0    4.1981E-7           0.
      4860.0    4.4473E-7           0.
      4870.0    3.1029E-7           0.
      4880.0    3.3335E-7           0.
      4890.0    3.7771E-7           0.
      4900.0    3.1216E-7           0.
      4910.0    4.9350E-7           0.
      4920.0    3.8644E-7           0.
      4930.0    4.5837E-7           0.
      4940.0    3.1029E-7           0.
      4950.0    3.1029E-7           0.
      4960.0    3.1029E-7           0.
      4970.0    3.1029E-7           0.
      4980.0    3.1029E-7           0.
      4990.0    3.3865E-7           0.
      5000.0    3.6672E-7           0.
      5010.0    3.1029E-7           0.
      5020.0    3.1029E-7           0.
      5030.0    3.1029E-7           0.
      5040.0    3.1029E-7           0.
      5050.0    3.1029E-7           0.
      5060.0    4.5572E-7           0.
      5070.0    3.4434E-7           0.
      5080.0    3.2069E-7           0.
      5090.0    3.3640E-7           0.
      5100.0    3.3355E-7           0.
      5110.0    3.1029E-7           0.
      5120.0    3.3541E-7           0.
      5130.0    3.1029E-7           0.
      5140.0    6.8594E-7           0.
      5150.0    3.1029E-7           0.
      5160.0    3.1029E-7           0.
      5170.0    4.1559E-7           0.
      5180.0    3.1029E-7           0.
      5190.0    3.3640E-7           0.
      5200.0    4.4336E-7           0.
      5210.0    4.0999E-7           0.
      5220.0    3.1029E-7           0.
      5230.0    3.1029E-7           0.
      5240.0    4.0617E-7           0.
      5250.0    4.1853E-7           0.
      5260.0    3.7251E-7           0.
      5270.0    3.3924E-7           0.
      5280.0    3.1461E-7           0.
      5290.0    3.1029E-7           0.
      5300.0    4.2138E-7           0.
      5310.0    4.8232E-7           0.
      5320.0    5.3089E-7           0.
      5330.0    3.2962E-7           0.
      5340.0    3.1029E-7           0.
      5350.0    3.5877E-7           0.
      5360.0    3.7251E-7           0.
      5370.0    5.3757E-7           0.
      5380.0    3.1029E-7           0.
      5390.0    4.5229E-7           0.
      5400.0    5.2422E-7           0.
      5410.0    4.6917E-7           0.
      5420.0    3.3649E-7           0.
      5430.0    5.8879E-7           0.
      5440.0    3.3689E-7           0.
      5450.0    3.1029E-7           0.
      5460.0    4.5661E-7           0.
      5470.0    3.1029E-7           0.
      5480.0    4.2059E-7           0.
      5490.0    3.1029E-7           0.
      5500.0    5.7387E-7           0.
      5510.0    3.9743E-7           0.
      5520.0    4.7358E-7           0.
      5530.0    3.5259E-7           0.
      5540.0    3.1559E-7           0.
      5550.0    4.5670E-7           0.
      5560.0    3.1029E-7           0.
      5570.0    5.1509E-7           0.
      5580.0    3.6672E-7           0.
      5590.0    3.1029E-7           0.
      5600.0    3.5573E-7           0.
      5610.0    5.2206E-7           0.
      5620.0    4.5190E-7           0.
      5630.0    3.3816E-7           0.
      5640.0    3.1029E-7           0.
      5650.0    3.1029E-7           0.
      5660.0    4.8448E-7           0.
      5670.0    3.1029E-7           0.
      5680.0    3.1029E-7           0.
      5690.0    6.0214E-7           0.
      5700.0    1.1266E-6           0.
      5710.0    3.7015E-7           0.
      5720.0    1.1648E-6           0.
      5730.0    2.0362E-6           0.
      5740.0    3.7614E-6           0.
      5750.0    9.3431E-6           0.
      5760.0    2.0097E-5           0.
      5770.0    4.8663E-5           0.
      5780.0    1.0353E-4           0.
      5790.0    2.2413E-4           0.
      5800.0    4.1215E-4           0.
      5810.0    7.7338E-4           0.
      5820.0    0.0012806           0.
      5830.0    0.0021756           0.
      5840.0    0.0032845           0.
      5850.0    0.0050577           0.
      5852.0    0.0055297           0.
      5854.0    0.0060802           0.
      5856.0    0.0066298           0.
      5858.0    0.0072176           0.
      5860.0    0.0079045           0.
      5862.0    0.0086111           0.
      5864.0    0.0093951           0.
      5866.0     0.010196           0.
      5868.0     0.011079           0.
      5870.0     0.012021           0.
      5872.0     0.013032           0.
      5874.0      0.01417           0.
      5876.0     0.015338           0.
      5878.0     0.016633           0.
      5880.0     0.018056           0.
      5882.0     0.019558           0.
      5884.0     0.021216           0.
      5886.0     0.023012           0.
      5888.0     0.024945           0.
      5890.0     0.027035           0.
      5892.0     0.029341           0.
      5894.0     0.031804           0.
      5896.0     0.034483           0.
      5898.0     0.037447           0.
      5900.0     0.040676           0.
      5902.0     0.044228           0.
      5904.0     0.048094           0.
      5906.0     0.052314           0.
      5908.0     0.056897           0.
      5910.0     0.061921           0.
      5912.0     0.067289           0.
      5914.0     0.073069           0.
      5916.0      0.07931           0.
      5918.0     0.085993           0.
      5920.0     0.093186           0.
      5922.0      0.10088           0.
      5924.0      0.10902           0.
      5926.0      0.11766           0.
      5928.0      0.12679           0.
      5930.0       0.1365           0.
      5932.0      0.14671           0.
      5934.0       0.1577           0.
      5936.0      0.16928           0.
      5938.0      0.18164           0.
      5940.0      0.19469           0.
      5942.0      0.20863           0.
      5944.0      0.22305           0.
      5946.0      0.23826           0.
      5948.0      0.25416           0.
      5950.0      0.27065           0.
      5952.0      0.28821           0.
      5954.0      0.30647           0.
      5956.0       0.3255           0.
      5958.0      0.34513           0.
      5960.0      0.36525           0.
      5962.0      0.38595           0.
      5964.0      0.40695           0.
      5966.0      0.42844           0.
      5968.0      0.45033           0.
      5970.0      0.47201           0.
      5972.0       0.4937           0.
      5974.0       0.5149           0.
      5976.0       0.5357           0.
      5978.0      0.55592           0.
      5980.0      0.57515           0.
      5982.0       0.5934           0.
      5984.0      0.61058           0.
      5986.0      0.62677           0.
      5988.0      0.64168           0.
      5990.0      0.65503           0.
      5992.0       0.6671           0.
      5994.0      0.67789           0.
      5996.0      0.68731           0.
      5998.0      0.69526           0.
      6000.0      0.70203           0.
      6002.0      0.70763           0.
      6004.0      0.71204           0.
      6006.0      0.71538           0.
      6008.0      0.71764           0.
      6010.0      0.71901           0.
      6012.0       0.7196           0.
      6014.0       0.7196           0.
      6016.0      0.71881           0.
      6018.0      0.71744           0.
      6020.0      0.71567           0.
      6022.0      0.71352           0.
      6024.0      0.71116           0.
      6026.0      0.70841           0.
      6028.0      0.70566           0.
      6030.0      0.70282           0.
      6032.0      0.69997           0.
      6034.0      0.69703           0.
      6036.0      0.69438           0.
      6038.0      0.69183           0.
      6040.0      0.68947           0.
      6042.0      0.68731           0.
      6044.0      0.68535           0.
      6046.0      0.68368           0.
      6048.0      0.68241           0.
      6050.0      0.68133           0.
      6052.0      0.68054           0.
      6054.0      0.68025           0.
      6056.0      0.68015           0.
      6058.0      0.68035           0.
      6060.0      0.68084           0.
      6062.0      0.68162           0.
      6064.0       0.6826           0.
      6066.0      0.68359           0.
      6068.0      0.68457           0.
      6070.0      0.68535           0.
      6072.0      0.68623           0.
      6074.0      0.68712           0.
      6076.0       0.6879           0.
      6078.0      0.68859           0.
      6080.0      0.68918           0.
      6082.0      0.68977           0.
      6084.0      0.69016           0.
      6086.0      0.69055           0.
      6088.0      0.69085           0.
      6090.0      0.69134           0.
      6092.0      0.69193           0.
      6094.0      0.69281           0.
      6096.0      0.69379           0.
      6098.0      0.69507           0.
      6100.0      0.69644           0.
      6102.0      0.69801           0.
      6104.0      0.69978           0.
      6106.0      0.70184           0.
      6108.0        0.704           0.
      6110.0      0.70655           0.
      6112.0      0.70949           0.
      6114.0      0.71263           0.
      6116.0      0.71597           0.
      6118.0       0.7196           0.
      6120.0      0.72352           0.
      6122.0      0.72774           0.
      6124.0      0.73206           0.
      6126.0      0.73667           0.
      6128.0      0.74148           0.
      6130.0      0.74659           0.
      6132.0      0.75188           0.
      6134.0      0.75738           0.
      6136.0      0.76307           0.
      6138.0      0.76876           0.
      6140.0      0.77446           0.
      6142.0      0.78015           0.
      6144.0      0.78584           0.
      6146.0      0.79124           0.
      6148.0      0.79653           0.
      6150.0      0.80154           0.
      6152.0      0.80635           0.
      6154.0      0.81106           0.
      6156.0      0.81587           0.
      6158.0      0.82038           0.
      6160.0       0.8247           0.
      6162.0      0.82872           0.
      6164.0      0.83255           0.
      6166.0      0.83638           0.
      6168.0      0.84011           0.
      6170.0      0.84374           0.
      6172.0      0.84727           0.
      6174.0       0.8509           0.
      6176.0      0.85433           0.
      6178.0      0.85787           0.
      6180.0       0.8614           0.
      6182.0      0.86483           0.
      6184.0      0.86827           0.
      6186.0       0.8717           0.
      6188.0      0.87514           0.
      6190.0      0.87857           0.
      6192.0      0.88191           0.
      6194.0      0.88534           0.
      6196.0      0.88878           0.
      6198.0      0.89192           0.
      6200.0      0.89496           0.
      6202.0       0.8981           0.
      6204.0      0.90134           0.
      6206.0      0.90458           0.
      6208.0      0.90752           0.
      6210.0      0.91037           0.
      6212.0      0.91312           0.
      6214.0      0.91567           0.
      6216.0      0.91792           0.
      6218.0      0.92018           0.
      6220.0      0.92214           0.
      6222.0      0.92401           0.
      6224.0      0.92568           0.
      6226.0      0.92705           0.
      6228.0      0.92852           0.
      6230.0       0.9299           0.
      6232.0      0.93117           0.
      6234.0      0.93225           0.
      6236.0      0.93313           0.
      6238.0      0.93372           0.
      6240.0      0.93441           0.
      6242.0       0.9348           0.
      6244.0       0.9351           0.
      6246.0      0.93539           0.
      6248.0      0.93569           0.
      6250.0      0.93578           0.
      6252.0      0.93569           0.
      6254.0      0.93549           0.
      6256.0      0.93529           0.
      6258.0       0.9351           0.
      6260.0        0.935           0.
      6262.0       0.9348           0.
      6264.0      0.93441           0.
      6266.0      0.93402           0.
      6268.0      0.93372           0.
      6270.0      0.93323           0.
      6272.0      0.93255           0.
      6274.0      0.93176           0.
      6276.0      0.93098           0.
      6278.0      0.93029           0.
      6280.0       0.9297           0.
      6282.0      0.92901           0.
      6284.0      0.92852           0.
      6286.0      0.92783           0.
      6288.0      0.92715           0.
      6290.0      0.92636           0.
      6292.0      0.92558           0.
      6294.0      0.92499           0.
      6296.0       0.9244           0.
      6298.0      0.92362           0.
      6300.0      0.92283           0.
      6302.0      0.92214           0.
      6304.0      0.92165           0.
      6306.0      0.92106           0.
      6308.0      0.92038           0.
      6310.0      0.91979           0.
      6312.0       0.9191           0.
      6314.0      0.91841           0.
      6316.0      0.91783           0.
      6318.0      0.91714           0.
      6320.0      0.91626           0.
      6322.0      0.91567           0.
      6324.0      0.91508           0.
      6326.0      0.91439           0.
      6328.0      0.91361           0.
      6330.0      0.91282           0.
      6332.0      0.91194           0.
      6334.0      0.91105           0.
      6336.0      0.91037           0.
      6338.0      0.90968           0.
      6340.0      0.90899           0.
      6342.0      0.90811           0.
      6344.0      0.90733           0.
      6346.0      0.90654           0.
      6348.0      0.90585           0.
      6350.0      0.90526           0.
      6352.0      0.90487           0.
      6354.0      0.90438           0.
      6356.0      0.90399           0.
      6358.0       0.9036           0.
      6360.0       0.9033           0.
      6362.0       0.9032           0.
      6364.0       0.9032           0.
      6366.0       0.9033           0.
      6368.0       0.9035           0.
      6370.0      0.90379           0.
      6372.0      0.90419           0.
      6374.0      0.90448           0.
      6376.0      0.90477           0.
      6378.0      0.90526           0.
      6380.0      0.90585           0.
      6382.0      0.90644           0.
      6384.0      0.90723           0.
      6386.0      0.90791           0.
      6388.0       0.9085           0.
      6390.0      0.90919           0.
      6392.0      0.90978           0.
      6394.0      0.91056           0.
      6396.0      0.91125           0.
      6398.0      0.91204           0.
      6400.0      0.91282           0.
      6402.0       0.9137           0.
      6404.0      0.91459           0.
      6406.0      0.91537           0.
      6408.0      0.91616           0.
      6410.0      0.91704           0.
      6412.0      0.91783           0.
      6414.0      0.91851           0.
      6416.0       0.9193           0.
      6418.0      0.92008           0.
      6420.0      0.92106           0.
      6422.0      0.92195           0.
      6424.0      0.92273           0.
      6426.0      0.92371           0.
      6428.0       0.9246           0.
      6430.0      0.92548           0.
      6432.0      0.92626           0.
      6434.0      0.92725           0.
      6436.0      0.92833           0.
      6438.0       0.9295           0.
      6440.0      0.93058           0.
      6442.0      0.93176           0.
      6444.0      0.93284           0.
      6446.0      0.93382           0.
      6448.0       0.9347           0.
      6450.0      0.93588           0.
      6452.0      0.93706           0.
      6454.0      0.93814           0.
      6456.0      0.93912           0.
      6458.0       0.9402           0.
      6460.0      0.94128           0.
      6462.0      0.94246           0.
      6464.0      0.94383           0.
      6466.0      0.94511           0.
      6468.0      0.94619           0.
      6470.0      0.94717           0.
      6472.0      0.94825           0.
      6474.0      0.94933           0.
      6476.0       0.9506           0.
      6478.0      0.95188           0.
      6480.0      0.95296           0.
      6482.0      0.95404           0.
      6484.0      0.95502           0.
      6486.0       0.9559           0.
      6488.0      0.95678           0.
      6490.0      0.95767           0.
      6492.0      0.95855           0.
      6494.0      0.95934           0.
      6496.0      0.96022           0.
      6498.0       0.9612           0.
      6500.0      0.96208           0.
      6502.0      0.96287           0.
      6504.0      0.96355           0.
      6506.0      0.96414           0.
      6508.0      0.96483           0.
      6510.0      0.96552           0.
      6512.0      0.96611           0.
      6514.0       0.9666           0.
      6516.0      0.96689           0.
      6518.0      0.96689           0.
      6520.0       0.9666           0.
      6522.0      0.96601           0.
      6524.0      0.96513           0.
      6526.0      0.96454           0.
      6528.0      0.96473           0.
      6530.0      0.96562           0.
      6532.0      0.96709           0.
      6534.0      0.96856           0.
      6536.0      0.97003           0.
      6538.0      0.97091           0.
      6540.0      0.97101           0.
      6542.0      0.97072           0.
      6544.0      0.97042           0.
      6546.0      0.97033           0.
      6548.0      0.97033           0.
      6550.0      0.97013           0.
      6552.0      0.96993           0.
      6554.0      0.96974           0.
      6556.0      0.96954           0.
      6558.0      0.96944           0.
      6560.0      0.96915           0.
      6562.0      0.96895           0.
      6564.0      0.96866           0.
      6566.0      0.96836           0.
      6568.0      0.96817           0.
      6570.0      0.96777           0.
      6572.0      0.96738           0.
      6574.0      0.96709           0.
      6576.0       0.9667           0.
      6578.0       0.9662           0.
      6580.0      0.96571           0.
      6582.0      0.96513           0.
      6584.0      0.96463           0.
      6586.0      0.96414           0.
      6588.0      0.96355           0.
      6590.0      0.96297           0.
      6592.0      0.96248           0.
      6594.0      0.96189           0.
      6596.0       0.9611           0.
      6598.0      0.96051           0.
      6600.0      0.95983           0.
      6602.0      0.95904           0.
      6604.0      0.95826           0.
      6606.0      0.95747           0.
      6608.0      0.95678           0.
      6610.0        0.956           0.
      6612.0      0.95551           0.
      6614.0      0.95482           0.
      6616.0      0.95404           0.
      6618.0      0.95315           0.
      6620.0      0.95237           0.
      6622.0      0.95158           0.
      6624.0       0.9508           0.
      6626.0      0.95011           0.
      6628.0      0.94942           0.
      6630.0      0.94854           0.
      6632.0      0.94785           0.
      6634.0      0.94717           0.
      6636.0      0.94638           0.
      6638.0       0.9456           0.
      6640.0      0.94501           0.
      6642.0      0.94442           0.
      6644.0      0.94383           0.
      6646.0      0.94334           0.
      6648.0      0.94275           0.
      6650.0      0.94216           0.
      6652.0      0.94148           0.
      6654.0      0.94089           0.
      6656.0       0.9404           0.
      6658.0      0.93991           0.
      6660.0      0.93951           0.
      6662.0      0.93912           0.
      6664.0      0.93863           0.
      6666.0      0.93814           0.
      6668.0      0.93775           0.
      6670.0      0.93716           0.
      6672.0      0.93686           0.
      6674.0      0.93677           0.
      6676.0      0.93657           0.
      6678.0      0.93627           0.
      6680.0      0.93598           0.
      6682.0      0.93578           0.
      6684.0      0.93559           0.
      6686.0      0.93539           0.
      6688.0      0.93519           0.
      6690.0        0.935           0.
      6692.0       0.9349           0.
      6694.0       0.9348           0.
      6696.0       0.9347           0.
      6698.0      0.93461           0.
      6700.0      0.93461           0.
      6702.0      0.93451           0.
      6704.0      0.93461           0.
      6706.0      0.93461           0.
      6708.0      0.93461           0.
      6710.0       0.9347           0.
      6712.0       0.9348           0.
      6714.0        0.935           0.
      6716.0      0.93529           0.
      6718.0      0.93549           0.
      6720.0      0.93569           0.
      6722.0      0.93588           0.
      6724.0      0.93618           0.
      6726.0      0.93657           0.
      6728.0      0.93706           0.
      6730.0      0.93745           0.
      6732.0      0.93794           0.
      6734.0      0.93843           0.
      6736.0      0.93883           0.
      6738.0      0.93932           0.
      6740.0      0.93981           0.
      6742.0       0.9401           0.
      6744.0      0.94049           0.
      6746.0      0.94108           0.
      6748.0      0.94177           0.
      6750.0      0.94226           0.
      6752.0      0.94285           0.
      6754.0      0.94344           0.
      6756.0      0.94403           0.
      6758.0      0.94462           0.
      6760.0       0.9453           0.
      6762.0      0.94589           0.
      6764.0      0.94668           0.
      6766.0      0.94727           0.
      6768.0      0.94795           0.
      6770.0      0.94864           0.
      6772.0      0.94933           0.
      6774.0      0.94972           0.
      6776.0      0.95021           0.
      6778.0      0.95099           0.
      6780.0      0.95178           0.
      6782.0      0.95247           0.
      6784.0      0.95315           0.
      6786.0      0.95384           0.
      6788.0      0.95443           0.
      6790.0      0.95502           0.
      6792.0      0.95551           0.
      6794.0      0.95619           0.
      6796.0      0.95669           0.
      6798.0      0.95727           0.
      6800.0      0.95796           0.
      6802.0      0.95865           0.
      6804.0      0.95934           0.
      6806.0      0.95992           0.
      6808.0      0.96051           0.
      6810.0      0.96091           0.
      6812.0       0.9613           0.
      6814.0      0.96179           0.
      6816.0      0.96228           0.
      6818.0      0.96267           0.
      6820.0      0.96316           0.
      6822.0      0.96375           0.
      6824.0      0.96424           0.
      6826.0      0.96473           0.
      6828.0      0.96532           0.
      6830.0      0.96581           0.
      6832.0      0.96601           0.
      6834.0       0.9662           0.
      6836.0       0.9664           0.
      6838.0      0.96679           0.
      6840.0      0.96709           0.
      6842.0      0.96748           0.
      6844.0      0.96768           0.
      6846.0      0.96797           0.
      6848.0      0.96827           0.
      6850.0      0.96846           0.
      6852.0      0.96846           0.
      6854.0      0.96846           0.
      6856.0      0.96866           0.
      6858.0      0.96885           0.
      6860.0      0.96885           0.
      6862.0      0.96876           0.
      6864.0      0.96846           0.
      6866.0      0.96817           0.
      6868.0      0.96787           0.
      6870.0      0.96768           0.
      6872.0      0.96728           0.
      6874.0      0.96699           0.
      6876.0      0.96679           0.
      6878.0       0.9664           0.
      6880.0      0.96611           0.
      6882.0      0.96581           0.
      6884.0      0.96552           0.
      6886.0      0.96532           0.
      6888.0      0.96493           0.
      6890.0      0.96463           0.
      6892.0      0.96444           0.
      6894.0      0.96405           0.
      6896.0      0.96365           0.
      6898.0      0.96316           0.
      6900.0      0.96267           0.
      6902.0      0.96218           0.
      6904.0      0.96169           0.
      6906.0        0.961           0.
      6908.0      0.96032           0.
      6910.0      0.95963           0.
      6912.0      0.95884           0.
      6914.0      0.95816           0.
      6916.0      0.95737           0.
      6918.0      0.95669           0.
      6920.0        0.956           0.
      6922.0      0.95521           0.
      6924.0      0.95443           0.
      6926.0      0.95374           0.
      6928.0      0.95296           0.
      6930.0      0.95237           0.
      6932.0      0.95148           0.
      6934.0       0.9508           0.
      6936.0      0.95001           0.
      6938.0      0.94913           0.
      6940.0      0.94844           0.
      6942.0      0.94756           0.
      6944.0      0.94668           0.
      6946.0      0.94579           0.
      6948.0      0.94471           0.
      6950.0      0.94363           0.
      6952.0      0.94265           0.
      6954.0      0.94197           0.
      6956.0      0.94128           0.
      6958.0      0.94059           0.
      6960.0      0.93981           0.
      6962.0      0.93892           0.
      6964.0      0.93775           0.
      6966.0      0.93657           0.
      6968.0      0.93529           0.
      6970.0      0.93402           0.
      6972.0      0.93313           0.
      6974.0      0.93225           0.
      6976.0      0.93147           0.
      6978.0      0.93078           0.
      6980.0      0.92999           0.
      6982.0      0.92931           0.
      6984.0      0.92852           0.
      6986.0      0.92783           0.
      6988.0      0.92725           0.
      6990.0      0.92656           0.
      6992.0      0.92607           0.
      6994.0      0.92538           0.
      6996.0      0.92479           0.
      6998.0      0.92411           0.
      7000.0      0.92362           0.
      7002.0      0.92303           0.
      7004.0      0.92263           0.
      7006.0      0.92214           0.
      7008.0      0.92185           0.
      7010.0      0.92146           0.
      7012.0      0.92116           0.
      7014.0      0.92087           0.
      7016.0      0.92057           0.
      7018.0      0.92028           0.
      7020.0      0.92018           0.
      7022.0      0.91989           0.
      7024.0      0.91949           0.
      7026.0       0.9192           0.
      7028.0        0.919           0.
      7030.0      0.91881           0.
      7032.0      0.91861           0.
      7034.0      0.91832           0.
      7036.0      0.91822           0.
      7038.0      0.91812           0.
      7040.0      0.91802           0.
      7042.0      0.91802           0.
      7044.0      0.91792           0.
      7046.0      0.91783           0.
      7048.0      0.91783           0.
      7050.0      0.91792           0.
      7052.0      0.91802           0.
      7054.0      0.91822           0.
      7056.0      0.91861           0.
      7058.0      0.91861           0.
      7060.0      0.91861           0.
      7062.0      0.91881           0.
      7064.0      0.91881           0.
      7066.0       0.9189           0.
      7068.0       0.9193           0.
      7070.0      0.91969           0.
      7072.0      0.91998           0.
      7074.0      0.92038           0.
      7076.0      0.92077           0.
      7078.0      0.92097           0.
      7080.0      0.92126           0.
      7082.0      0.92175           0.
      7084.0      0.92214           0.
      7086.0      0.92263           0.
      7088.0      0.92332           0.
      7090.0      0.92381           0.
      7092.0       0.9242           0.
      7094.0      0.92469           0.
      7096.0      0.92519           0.
      7098.0      0.92558           0.
      7100.0      0.92617           0.
      7102.0      0.92695           0.
      7104.0      0.92783           0.
      7106.0      0.92882           0.
      7108.0       0.9295           0.
      7110.0      0.92999           0.
      7112.0      0.93078           0.
      7114.0      0.93147           0.
      7116.0      0.93205           0.
      7118.0      0.93274           0.
      7120.0      0.93353           0.
      7122.0      0.93451           0.
      7124.0      0.93569           0.
      7126.0      0.93677           0.
      7128.0      0.93775           0.
      7130.0      0.93853           0.
      7132.0      0.93932           0.
      7134.0         0.94           0.
      7136.0      0.94079           0.
      7138.0      0.94187           0.
      7140.0      0.94285           0.
      7142.0      0.94373           0.
      7144.0      0.94471           0.
      7146.0      0.94569           0.
      7148.0      0.94668           0.
      7150.0      0.94776           0.
      7152.0      0.94874           0.
      7154.0      0.94952           0.
      7156.0      0.95011           0.
      7158.0      0.95099           0.
      7160.0      0.95188           0.
      7162.0      0.95266           0.
      7164.0      0.95345           0.
      7166.0      0.95433           0.
      7168.0      0.95521           0.
      7170.0       0.9559           0.
      7172.0      0.95649           0.
      7174.0      0.95708           0.
      7176.0      0.95777           0.
      7178.0      0.95855           0.
      7180.0      0.95924           0.
      7182.0      0.95973           0.
      7184.0      0.96022           0.
      7186.0      0.96081           0.
      7188.0      0.96149           0.
      7190.0      0.96208           0.
      7192.0      0.96267           0.
      7194.0      0.96316           0.
      7196.0      0.96355           0.
      7198.0      0.96395           0.
      7200.0      0.96454           0.
      7202.0      0.96493           0.
      7204.0      0.96532           0.
      7206.0      0.96562           0.
      7208.0      0.96591           0.
      7210.0       0.9662           0.
      7212.0       0.9663           0.
      7214.0       0.9665           0.
      7216.0      0.96679           0.
      7218.0      0.96709           0.
      7220.0      0.96728           0.
      7222.0      0.96748           0.
      7224.0      0.96758           0.
      7226.0      0.96758           0.
      7228.0      0.96768           0.
      7230.0      0.96758           0.
      7232.0      0.96738           0.
      7234.0      0.96709           0.
      7236.0      0.96689           0.
      7238.0      0.96679           0.
      7240.0       0.9666           0.
      7242.0       0.9663           0.
      7244.0      0.96611           0.
      7246.0      0.96571           0.
      7248.0      0.96542           0.
      7250.0      0.96493           0.
      7252.0      0.96444           0.
      7254.0      0.96375           0.
      7256.0      0.96316           0.
      7258.0      0.96277           0.
      7260.0      0.96248           0.
      7262.0      0.96198           0.
      7264.0       0.9614           0.
      7266.0      0.96071           0.
      7268.0      0.95992           0.
      7270.0      0.95904           0.
      7272.0      0.95816           0.
      7274.0      0.95727           0.
      7276.0      0.95639           0.
      7278.0      0.95541           0.
      7280.0      0.95472           0.
      7282.0      0.95404           0.
      7284.0      0.95315           0.
      7286.0      0.95217           0.
      7288.0      0.95109           0.
      7290.0      0.95011           0.
      7292.0      0.94913           0.
      7294.0      0.94815           0.
      7296.0      0.94717           0.
      7298.0      0.94619           0.
      7300.0       0.9452           0.
      7302.0      0.94403           0.
      7304.0      0.94275           0.
      7306.0      0.94157           0.
      7308.0       0.9404           0.
      7310.0      0.93922           0.
      7312.0      0.93804           0.
      7314.0      0.93686           0.
      7316.0      0.93569           0.
      7318.0      0.93461           0.
      7320.0      0.93333           0.
      7322.0      0.93205           0.
      7324.0      0.93058           0.
      7326.0      0.92901           0.
      7328.0      0.92764           0.
      7330.0      0.92646           0.
      7332.0      0.92519           0.
      7334.0      0.92411           0.
      7336.0      0.92303           0.
      7338.0      0.92185           0.
      7340.0      0.92048           0.
      7342.0       0.9191           0.
      7344.0      0.91773           0.
      7346.0      0.91665           0.
      7348.0      0.91537           0.
      7350.0       0.9138           0.
      7352.0      0.91253           0.
      7354.0      0.91135           0.
      7356.0      0.91027           0.
      7358.0      0.90909           0.
      7360.0      0.90811           0.
      7362.0      0.90703           0.
      7364.0      0.90605           0.
      7366.0      0.90497           0.
      7368.0      0.90399           0.
      7370.0      0.90281           0.
      7372.0      0.90163           0.
      7374.0      0.90055           0.
      7376.0      0.89967           0.
      7378.0      0.89879           0.
      7380.0       0.8983           0.
      7382.0      0.89771           0.
      7384.0      0.89692           0.
      7386.0      0.89604           0.
      7388.0      0.89516           0.
      7390.0      0.89447           0.
      7392.0      0.89369           0.
      7394.0       0.8931           0.
      7396.0      0.89251           0.
      7398.0      0.89192           0.
      7400.0      0.89123           0.
      7402.0      0.89064           0.
      7404.0      0.89015           0.
      7406.0      0.88966           0.
      7408.0      0.88907           0.
      7410.0      0.88858           0.
      7412.0      0.88809           0.
      7414.0       0.8879           0.
      7416.0       0.8876           0.
      7418.0      0.88721           0.
      7420.0      0.88701           0.
      7422.0      0.88662           0.
      7424.0      0.88593           0.
      7426.0      0.88554           0.
      7428.0      0.88534           0.
      7430.0      0.88505           0.
      7432.0      0.88466           0.
      7434.0      0.88436           0.
      7436.0      0.88387           0.
      7438.0      0.88377           0.
      7440.0      0.88368           0.
      7442.0      0.88338           0.
      7444.0      0.88319           0.
      7446.0      0.88299           0.
      7448.0      0.88279           0.
      7450.0       0.8826           0.
      7452.0       0.8824           0.
      7454.0       0.8825           0.
      7456.0       0.8825           0.
      7458.0       0.8824           0.
      7460.0       0.8823           0.
      7462.0       0.8823           0.
      7464.0       0.8823           0.
      7466.0       0.8825           0.
      7468.0      0.88279           0.
      7470.0      0.88319           0.
      7472.0      0.88358           0.
      7474.0      0.88397           0.
      7476.0      0.88436           0.
      7478.0      0.88456           0.
      7480.0      0.88485           0.
      7482.0      0.88544           0.
      7484.0      0.88593           0.
      7486.0      0.88662           0.
      7488.0      0.88731           0.
      7490.0      0.88809           0.
      7492.0      0.88888           0.
      7494.0      0.88986           0.
      7496.0      0.89064           0.
      7498.0      0.89153           0.
      7500.0      0.89251           0.
      7502.0      0.89339           0.
      7504.0      0.89437           0.
      7506.0      0.89535           0.
      7508.0      0.89633           0.
      7510.0      0.89751           0.
      7512.0      0.89859           0.
      7514.0      0.89967           0.
      7516.0      0.90095           0.
      7518.0      0.90222           0.
      7520.0       0.9035           0.
      7522.0      0.90497           0.
      7524.0      0.90634           0.
      7526.0      0.90762           0.
      7528.0       0.9088           0.
      7530.0      0.91017           0.
      7532.0      0.91145           0.
      7534.0      0.91272           0.
      7536.0        0.914           0.
      7538.0      0.91518           0.
      7540.0      0.91626           0.
      7542.0      0.91743           0.
      7544.0      0.91861           0.
      7546.0      0.91989           0.
      7548.0      0.92106           0.
      7550.0      0.92224           0.
      7552.0      0.92362           0.
      7554.0      0.92479           0.
      7556.0      0.92568           0.
      7558.0      0.92666           0.
      7560.0      0.92764           0.
      7562.0      0.92891           0.
      7564.0      0.93009           0.
      7566.0      0.93137           0.
      7568.0      0.93245           0.
      7570.0      0.93353           0.
      7572.0       0.9348           0.
      7574.0      0.93598           0.
      7576.0      0.93706           0.
      7578.0      0.93784           0.
      7580.0      0.93892           0.
      7582.0      0.93991           0.
      7584.0      0.94108           0.
      7586.0      0.94226           0.
      7588.0      0.94344           0.
      7590.0      0.94442           0.
      7592.0       0.9453           0.
      7594.0      0.94628           0.
      7596.0      0.94717           0.
      7598.0      0.94795           0.
      7600.0      0.94893           0.
      7602.0      0.94991           0.
      7604.0       0.9509           0.
      7606.0      0.95178           0.
      7608.0      0.95266           0.
      7610.0      0.95335           0.
      7612.0      0.95413           0.
      7614.0      0.95502           0.
      7616.0        0.956           0.
      7618.0      0.95669           0.
      7620.0      0.95718           0.
      7622.0      0.95757           0.
      7624.0      0.95806           0.
      7626.0      0.95855           0.
      7628.0      0.95934           0.
      7630.0      0.95983           0.
      7632.0      0.96022           0.
      7634.0      0.96061           0.
      7636.0       0.9611           0.
      7638.0      0.96159           0.
      7640.0      0.96228           0.
      7642.0      0.96287           0.
      7644.0      0.96326           0.
      7646.0      0.96336           0.
      7648.0      0.96355           0.
      7650.0      0.96385           0.
      7652.0      0.96405           0.
      7654.0      0.96405           0.
      7656.0      0.96385           0.
      7658.0      0.96355           0.
      7660.0      0.96346           0.
      7662.0      0.96355           0.
      7664.0      0.96375           0.
      7666.0      0.96385           0.
      7668.0      0.96365           0.
      7670.0      0.96326           0.
      7672.0      0.96277           0.
      7674.0      0.96228           0.
      7676.0      0.96198           0.
      7678.0      0.96179           0.
      7680.0       0.9614           0.
      7682.0      0.96091           0.
      7684.0      0.96041           0.
      7686.0      0.95983           0.
      7688.0      0.95894           0.
      7690.0      0.95806           0.
      7692.0      0.95727           0.
      7694.0      0.95639           0.
      7696.0       0.9557           0.
      7698.0      0.95512           0.
      7700.0      0.95433           0.
      7702.0      0.95345           0.
      7704.0      0.95266           0.
      7706.0      0.95158           0.
      7708.0      0.95021           0.
      7710.0      0.94913           0.
      7712.0      0.94795           0.
      7714.0      0.94648           0.
      7716.0       0.9453           0.
      7718.0      0.94403           0.
      7720.0      0.94275           0.
      7722.0      0.94148           0.
      7724.0       0.9404           0.
      7726.0      0.93902           0.
      7728.0      0.93765           0.
      7730.0      0.93637           0.
      7732.0       0.9349           0.
      7734.0      0.93343           0.
      7736.0      0.93196           0.
      7738.0      0.93039           0.
      7740.0      0.92882           0.
      7742.0      0.92754           0.
      7744.0      0.92636           0.
      7746.0      0.92509           0.
      7748.0      0.92362           0.
      7750.0      0.92205           0.
      7752.0      0.92028           0.
      7754.0      0.91871           0.
      7756.0      0.91724           0.
      7758.0      0.91586           0.
      7760.0      0.91449           0.
      7762.0      0.91312           0.
      7764.0      0.91164           0.
      7766.0      0.91017           0.
      7768.0       0.9088           0.
      7770.0      0.90723           0.
      7772.0      0.90566           0.
      7774.0      0.90409           0.
      7776.0      0.90262           0.
      7778.0      0.90114           0.
      7780.0      0.89957           0.
      7782.0       0.8982           0.
      7784.0      0.89683           0.
      7786.0      0.89535           0.
      7788.0      0.89378           0.
      7790.0      0.89221           0.
      7792.0      0.89054           0.
      7794.0      0.88878           0.
      7796.0      0.88691           0.
      7798.0      0.88505           0.
      7800.0      0.88319           0.
      7802.0      0.88152           0.
      7804.0      0.88004           0.
      7806.0      0.87838           0.
      7808.0      0.87671           0.
      7810.0      0.87484           0.
      7812.0      0.87278           0.
      7814.0      0.87082           0.
      7816.0      0.86886           0.
      7818.0       0.8668           0.
      7820.0      0.86493           0.
      7822.0      0.86317           0.
      7824.0      0.86111           0.
      7826.0      0.85904           0.
      7828.0      0.85708           0.
      7830.0      0.85502           0.
      7832.0      0.85296           0.
      7834.0       0.8509           0.
      7836.0      0.84864           0.
      7838.0      0.84648           0.
      7840.0      0.84482           0.
      7842.0      0.84334           0.
      7844.0      0.84177           0.
      7846.0      0.84011           0.
      7848.0      0.83824           0.
      7850.0      0.83638           0.
      7852.0      0.83461           0.
      7854.0      0.83275           0.
      7856.0      0.83108           0.
      7858.0      0.82961           0.
      7860.0      0.82794           0.
      7862.0      0.82627           0.
      7864.0       0.8248           0.
      7866.0      0.82352           0.
      7868.0      0.82234           0.
      7870.0      0.82097           0.
      7872.0      0.81979           0.
      7874.0      0.81852           0.
      7876.0      0.81714           0.
      7878.0      0.81587           0.
      7880.0      0.81489           0.
      7882.0      0.81381           0.
      7884.0      0.81273           0.
      7886.0      0.81184           0.
      7888.0      0.81086           0.
      7890.0      0.80998           0.
      7892.0      0.80919           0.
      7894.0      0.80811           0.
      7896.0      0.80713           0.
      7898.0      0.80625           0.
      7900.0      0.80556           0.
      7902.0      0.80497           0.
      7904.0      0.80429           0.
      7906.0      0.80311           0.
      7908.0      0.80213           0.
      7910.0      0.80134           0.
      7912.0      0.80066           0.
      7914.0      0.80007           0.
      7916.0      0.79948           0.
      7918.0      0.79889           0.
      7920.0       0.7982           0.
      7922.0      0.79732           0.
      7924.0      0.79653           0.
      7926.0      0.79604           0.
      7928.0      0.79575           0.
      7930.0      0.79536           0.
      7932.0      0.79496           0.
      7934.0      0.79467           0.
      7936.0      0.79447           0.
      7938.0      0.79408           0.
      7940.0      0.79389           0.
      7942.0      0.79379           0.
      7944.0      0.79369           0.
      7946.0      0.79389           0.
      7948.0      0.79398           0.
      7950.0      0.79408           0.
      7952.0      0.79438           0.
      7954.0      0.79447           0.
      7956.0      0.79457           0.
      7958.0      0.79496           0.
      7960.0      0.79565           0.
      7962.0      0.79614           0.
      7964.0      0.79663           0.
      7966.0      0.79732           0.
      7968.0       0.7983           0.
      7970.0      0.79899           0.
      7972.0      0.79977           0.
      7974.0      0.80056           0.
      7976.0      0.80125           0.
      7978.0      0.80203           0.
      7980.0      0.80291           0.
      7982.0       0.8037           0.
      7984.0      0.80448           0.
      7986.0      0.80537           0.
      7988.0      0.80615           0.
      7990.0      0.80713           0.
      7992.0      0.80802           0.
      7994.0       0.8088           0.
      7996.0      0.80929           0.
      7998.0      0.80939           0.
      8000.0      0.80537           0.
      8002.0      0.80537           0.
      8004.0      0.80517           0.
      8006.0      0.80488           0.
      8008.0      0.80468           0.
      8010.0      0.80468           0.
      8012.0      0.80478           0.
      8014.0      0.80429           0.
      8016.0      0.80331           0.
      8018.0      0.80213           0.
      8020.0      0.80105           0.
      8022.0      0.80007           0.
      8024.0      0.79958           0.
      8026.0      0.79918           0.
      8028.0      0.79869           0.
      8030.0       0.7982           0.
      8032.0      0.79781           0.
      8034.0      0.79693           0.
      8036.0      0.79575           0.
      8038.0      0.79477           0.
      8040.0      0.79389           0.
      8042.0        0.793           0.
      8044.0      0.79192           0.
      8046.0      0.79114           0.
      8048.0      0.79094           0.
      8050.0      0.79075           0.
      8052.0      0.79055           0.
      8054.0      0.79045           0.
      8056.0      0.79025           0.
      8058.0      0.78996           0.
      8060.0      0.78947           0.
      8062.0      0.78898           0.
      8064.0      0.78839           0.
      8066.0      0.78721           0.
      8068.0      0.78594           0.
      8070.0      0.78554           0.
      8072.0      0.78564           0.
      8074.0      0.78545           0.
      8076.0      0.78476           0.
      8078.0      0.78388           0.
      8080.0       0.7827           0.
      8082.0      0.78132           0.
      8084.0      0.77936           0.
      8086.0      0.77652           0.
      8088.0      0.77328           0.
      8090.0      0.76994           0.
      8092.0       0.7666           0.
      8094.0      0.76317           0.
      8096.0      0.75934           0.
      8098.0      0.75493           0.
      8100.0      0.75031           0.
      8102.0      0.74511           0.
      8104.0      0.73903           0.
      8106.0      0.73265           0.
      8108.0      0.72588           0.
      8110.0      0.71901           0.
      8112.0      0.71175           0.
      8114.0       0.7036           0.
      8116.0      0.69536           0.
      8118.0      0.68751           0.
      8120.0      0.67976           0.
      8122.0      0.67201           0.
      8124.0      0.66386           0.
      8126.0      0.65503           0.
      8128.0      0.64561           0.
      8130.0      0.63609           0.
      8132.0      0.62657           0.
      8134.0      0.61686           0.
      8136.0      0.60694           0.
      8138.0      0.59703           0.
      8140.0      0.58751           0.
      8142.0        0.578           0.
      8144.0      0.56838           0.
      8146.0      0.55906           0.
      8148.0      0.55022           0.
      8150.0      0.54139           0.
      8152.0      0.53246           0.
      8154.0      0.52334           0.
      8156.0      0.51421           0.
      8158.0      0.50567           0.
      8160.0      0.49743           0.
      8162.0      0.48928           0.
      8164.0      0.48163           0.
      8166.0      0.47456           0.
      8168.0       0.4677           0.
      8170.0      0.46083           0.
      8172.0      0.45425           0.
      8174.0      0.44797           0.
      8176.0      0.44189           0.
      8178.0       0.4357           0.
      8180.0      0.42952           0.
      8182.0      0.42324           0.
      8184.0      0.41686           0.
      8186.0      0.41039           0.
      8188.0      0.40411           0.
      8190.0      0.39763           0.
      8192.0      0.39086           0.
      8194.0      0.38379           0.
      8196.0      0.37643           0.
      8198.0      0.36927           0.
      8200.0       0.3622           0.
      8202.0      0.35484           0.
      8204.0      0.34729           0.
      8206.0      0.33993           0.
      8208.0      0.33247           0.
      8210.0      0.32472           0.
      8212.0      0.31667           0.
      8214.0      0.30911           0.
      8216.0      0.30136           0.
      8218.0      0.29381           0.
      8220.0      0.28654           0.
      8222.0      0.27958           0.
      8224.0      0.27271           0.
      8226.0      0.26564           0.
      8228.0      0.25868           0.
      8230.0        0.252           0.
      8232.0      0.24553           0.
      8234.0      0.23934           0.
      8236.0      0.23306           0.
      8238.0      0.22688           0.
      8240.0       0.2208           0.
      8242.0      0.21471           0.
      8244.0      0.20882           0.
      8246.0      0.20323           0.
      8248.0      0.19803           0.
      8250.0      0.19273           0.
      8252.0      0.18753           0.
      8254.0      0.18203           0.
      8256.0      0.17674           0.
      8258.0      0.17163           0.
      8260.0      0.16692           0.
      8262.0       0.1626           0.
      8264.0      0.15819           0.
      8266.0      0.15358           0.
      8268.0      0.14936           0.
      8270.0      0.14533           0.
      8272.0      0.14141           0.
      8274.0      0.13729           0.
      8276.0      0.13307           0.
      8278.0      0.12934           0.
      8280.0        0.126           0.
      8282.0      0.12257           0.
      8284.0      0.11933           0.
      8286.0      0.11619           0.
      8288.0      0.11315           0.
      8290.0       0.1102           0.
      8292.0      0.10755           0.
      8294.0       0.1049           0.
      8296.0      0.10206           0.
      8298.0     0.099407           0.
      8300.0     0.097023           0.
      8302.0     0.094834           0.
      8304.0     0.092666           0.
      8306.0     0.090654           0.
      8308.0      0.08879           0.
      8310.0     0.087082           0.
      8312.0     0.085384           0.
      8314.0     0.083294           0.
      8316.0     0.081332           0.
      8318.0     0.079791           0.
      8320.0     0.078437           0.
      8322.0     0.076984           0.
      8324.0     0.075522           0.
      8326.0     0.074099           0.
      8328.0     0.072725           0.
      8330.0     0.071136           0.
      8332.0     0.069624           0.
      8334.0     0.068359           0.
      8336.0     0.067024           0.
      8338.0     0.065287           0.
      8340.0     0.063815           0.
      8342.0     0.062785           0.
      8344.0     0.061676           0.
      8346.0     0.060371           0.
      8348.0     0.058977           0.
      8350.0       0.0578           0.
      8352.0     0.056681           0.
      8354.0     0.055493           0.
      8356.0     0.054316           0.
      8358.0     0.053089           0.
      8360.0      0.05201           0.
      8362.0     0.051028           0.
      8364.0     0.050018           0.
      8366.0     0.048644           0.
      8368.0     0.047476           0.
      8370.0     0.046534           0.
      8372.0     0.045543           0.
      8374.0     0.044434           0.
      8376.0     0.043335           0.
      8378.0     0.042452           0.
      8380.0     0.041549           0.
      8382.0     0.040685           0.
      8384.0     0.039841           0.
      8386.0     0.038978           0.
      8388.0     0.038075           0.
      8390.0     0.037369           0.
      8392.0      0.03677           0.
      8394.0     0.036073           0.
      8396.0     0.035406           0.
      8398.0     0.034562           0.
      8400.0     0.033797           0.
      8402.0     0.033169           0.
      8404.0      0.03259           0.
      8406.0      0.03203           0.
      8408.0     0.031559           0.
      8410.0      0.03098           0.
      8412.0     0.030352           0.
      8414.0     0.029704           0.
      8416.0     0.029165           0.
      8418.0     0.028664           0.
      8420.0     0.028272           0.
      8422.0     0.027869           0.
      8424.0     0.027281           0.
      8426.0     0.026741           0.
      8428.0     0.026358           0.
      8440.0     0.023179           0.
      8450.0     0.020961           0.
      8460.0     0.019253           0.
      8470.0     0.017517           0.
      8480.0     0.016172           0.
      8490.0     0.014828           0.
      8500.0     0.013768           0.
      8510.0     0.012669           0.
      8520.0     0.011805           0.
      8530.0     0.010942           0.
      8540.0     0.010216           0.
      8550.0    0.0095021           0.
      8560.0     0.008927           0.
      8570.0    0.0083059           0.
      8580.0    0.0078054           0.
      8590.0    0.0072529           0.
      8600.0    0.0068172           0.
      8610.0    0.0063589           0.
      8620.0    0.0060135           0.
      8630.0    0.0056308           0.
      8640.0    0.0053354           0.
      8650.0     0.005042           0.
      8660.0    0.0048065           0.
      8670.0    0.0045837           0.
      8680.0    0.0043345           0.
      8690.0    0.0041588           0.
      8700.0      0.00394           0.
      8710.0    0.0037575           0.
      8720.0    0.0035779           0.
      8730.0     0.003415           0.
      8740.0     0.003255           0.
      8750.0    0.0031206           0.
      8760.0     0.002993           0.
      8770.0    0.0028851           0.
      8780.0    0.0027781           0.
      8790.0    0.0027016           0.
      8800.0    0.0025877           0.
      8810.0    0.0025063           0.
      8820.0    0.0023895           0.
      8830.0    0.0022884           0.
      8840.0    0.0021677           0.
      8850.0    0.0020696           0.
      8860.0    0.0019675           0.
      8870.0    0.0018694           0.
      8880.0    0.0017654           0.
      8890.0    0.0016761           0.
      8900.0    0.0015937           0.
      8910.0    0.0015171           0.
      8920.0    0.0014357           0.
      8930.0    0.0013591           0.
      8940.0    0.0012895           0.
      8950.0    0.0012414           0.
      8960.0    0.0011825           0.
      8970.0     0.001154           0.
      8980.0    0.0011089           0.
      8990.0    0.0010765           0.
      9000.0    0.0010284           0.
      9010.0    9.8083E-4           0.
      9020.0    9.2597E-4           0.
      9030.0    8.8348E-4           0.
      9040.0    8.2970E-4           0.
      9050.0    7.6945E-4           0.
      9060.0    7.2529E-4           0.
      9070.0    6.8614E-4           0.
      9080.0    6.3933E-4           0.
      9090.0    5.8859E-4           0.
      9100.0    5.4493E-4           0.
      9110.0    5.2108E-4           0.
      9120.0    4.7231E-4           0.
      9130.0    4.4787E-4           0.
      9140.0    4.0764E-4           0.
      9150.0    3.8212E-4           0.
      9160.0    3.6063E-4           0.
      9170.0    3.3757E-4           0.
      9180.0    3.2207E-4           0.
      9190.0    3.1078E-4           0.
      9200.0    2.9616E-4           0.
      9210.0    2.8066E-4           0.
      9220.0    2.6918E-4           0.
      9230.0    2.6260E-4           0.
      9240.0    2.5622E-4           0.
      9250.0    2.4759E-4           0.
      9260.0    2.3718E-4           0.
      9270.0    2.2168E-4           0.
      9280.0    2.1216E-4           0.
      9290.0    2.1000E-4           0.
      9300.0    1.9214E-4           0.
      9310.0    1.9195E-4           0.
      9320.0    1.7202E-4           0.
      9330.0    1.6947E-4           0.
      9340.0    1.5466E-4           0.
      9350.0    1.4788E-4           0.
      9360.0    1.5122E-4           0.
      9370.0    1.3012E-4           0.
      9380.0    1.2276E-4           0.
      9390.0    1.2414E-4           0.
      9400.0    1.0951E-4           0.
      9410.0    1.0637E-4           0.
      9420.0    1.0716E-4           0.
      9430.0    9.4363E-5           0.
      9440.0    9.4628E-5           0.
      9450.0    9.4010E-5           0.
      9460.0    9.6120E-5           0.
      9470.0    8.8731E-5           0.
      9480.0    9.6316E-5           0.
      9490.0    9.7631E-5           0.
      9500.0    8.8387E-5           0.
      9510.0    8.8799E-5           0.
      9520.0    8.5787E-5           0.
      9530.0    8.7259E-5           0.
      9540.0    8.1547E-5           0.
      9550.0    8.5502E-5           0.
      9560.0    8.7102E-5           0.
      9570.0    7.8692E-5           0.
      9580.0    8.4354E-5           0.
      9590.0    8.4707E-5           0.
      9600.0    6.9075E-5           0.
      9610.0    7.3285E-5           0.
      9620.0    7.4855E-5           0.
      9630.0    6.2058E-5           0.
      9640.0    6.5297E-5           0.
      9650.0    5.7682E-5           0.
      9660.0    6.4404E-5           0.
      9670.0    7.1234E-5           0.
      9680.0    5.7849E-5           0.
      9690.0    5.1676E-5           0.
      9700.0    5.4502E-5           0.
      9710.0    6.1146E-5           0.
      9720.0    5.7907E-5           0.
      9730.0    5.6818E-5           0.
      9740.0    6.0155E-5           0.
      9750.0    5.4178E-5           0.
      9760.0    6.1774E-5           0.
      9770.0    7.2245E-5           0.
      9780.0    7.0939E-5           0.
      9790.0    4.6662E-5           0.
      9800.0    6.3884E-5           0.
      9810.0    6.8987E-5           0.
      9820.0    6.4051E-5           0.
      9830.0    7.0517E-5           0.
      9840.0    6.6131E-5           0.
      9850.0    6.4747E-5           0.
      9860.0    6.6631E-5           0.
      9870.0    5.8388E-5           0.
      9880.0    6.3344E-5           0.
      9890.0    6.3079E-5           0.
      9900.0    6.5689E-5           0.
      9910.0    5.1225E-5           0.
      9920.0    5.4944E-5           0.
      9930.0    5.3786E-5           0.
      9940.0    4.3139E-5           0.
      9950.0    4.9027E-5           0.
      9960.0    4.7535E-5           0.
      9970.0    4.5209E-5           0.
      9980.0    5.3207E-5           0.
      9990.0    4.5818E-5           0.
     10000.0    5.3403E-5           0.
     10010.0    4.7221E-5           0.
     10020.0    5.1431E-5           0.
     10030.0    4.9871E-5           0.
     10040.0    5.5974E-5           0.
     10050.0    5.3325E-5           0.
     10060.0    5.3187E-5           0.
     10070.0    6.4806E-5           0.
     10080.0    5.2657E-5           0.
     10090.0    4.8771E-5           0.
     10100.0    5.6416E-5           0.
     10110.0    7.0988E-5           0.
     10120.0    7.0223E-5           0.
     10130.0    6.3844E-5           0.
     10140.0    6.1372E-5           0.
     10150.0    6.3638E-5           0.
     10160.0    6.4374E-5           0.
     10170.0    6.6416E-5           0.
     10180.0    6.4051E-5           0.
     10190.0    6.6406E-5           0.
     10200.0    5.8771E-5           0.
     10210.0    5.8859E-5           0.
     10220.0    5.4355E-5           0.
     10230.0    5.8575E-5           0.
     10240.0    5.2746E-5           0.
     10250.0    6.4836E-5           0.
     10260.0    5.7397E-5           0.
     10270.0    4.5258E-5           0.
     10280.0    5.1392E-5           0.
     10290.0    6.2893E-5           0.
     10300.0    6.1705E-5           0.
     10310.0    6.6945E-5           0.
     10320.0    6.6808E-5           0.
     10330.0    6.1892E-5           0.
     10340.0    6.2579E-5           0.
     10350.0    6.8123E-5           0.
     10360.0    7.1302E-5           0.
     10370.0    5.7201E-5           0.
     10380.0    6.9104E-5           0.
     10390.0    6.3766E-5           0.
     10400.0    6.3079E-5           0.
     10410.0    6.7966E-5           0.
     10420.0    7.4188E-5           0.
     10430.0    7.7092E-5           0.
     10440.0    8.0331E-5           0.
     10450.0    8.0851E-5           0.
     10460.0    7.3550E-5           0.
     10470.0    7.5306E-5           0.
     10480.0    8.3638E-5           0.
     10490.0    8.4354E-5           0.
     10500.0    9.1037E-5           0.
     10510.0    9.4687E-5           0.
     10520.0    9.2852E-5           0.
     10530.0    1.0157E-4           0.
     10540.0    9.9211E-5           0.
     10550.0    9.5453E-5           0.
     10560.0    9.0320E-5           0.
     10570.0    8.9741E-5           0.
     10580.0    8.6454E-5           0.
     10590.0    8.8063E-5           0.
     10600.0    9.6091E-5           0.
     10610.0    9.5217E-5           0.
     10620.0    8.3834E-5           0.
     10630.0    8.9123E-5           0.
     10640.0    9.6611E-5           0.
     10650.0    8.5787E-5           0.
     10660.0    9.2685E-5           0.
     10670.0    9.7435E-5           0.
     10680.0    9.7749E-5           0.
     10690.0    9.8917E-5           0.
     10700.0    1.0088E-4           0.
     10710.0    1.2031E-4           0.
     10720.0    1.2041E-4           0.
     10730.0    1.1786E-4           0.
     10740.0    1.1972E-4           0.
     10750.0    1.2816E-4           0.
     10760.0    1.3562E-4           0.
     10770.0    1.5672E-4           0.
     10780.0    1.5750E-4           0.
     10790.0    1.6437E-4           0.
     10800.0    1.7458E-4           0.
     10810.0    1.8763E-4           0.
     10820.0    1.8988E-4           0.
     10830.0    1.9567E-4           0.
     10840.0    1.9813E-4           0.
     10850.0    2.0480E-4           0.
     10860.0    2.0274E-4           0.
     10870.0    2.0058E-4           0.
     10880.0    2.0559E-4           0.
     10890.0    2.1177E-4           0.
     10900.0    2.1874E-4           0.
     10910.0    2.1216E-4           0.
     10920.0    2.1295E-4           0.
     10930.0    2.2158E-4           0.
     10940.0    2.2207E-4           0.
     10950.0    2.2973E-4           0.
     10960.0    2.3277E-4           0.
     10970.0    2.4651E-4           0.
     10980.0    2.5740E-4           0.
     10990.0    2.7045E-4           0.
     11000.0    2.6741E-4           0.
