#  Table crwfpc2comp$wfpc2_f675w_004.tab  Thu 08:19:10 15-May-97

# WAVELENGTH   THROUGHPUT        error
#  ANGSTROMS TRANSMISSION TRANSMISSION

      1850.0    6.5905E-4           0.
      1860.0    8.0030E-6           0.
      1870.0    3.0776E-5           0.
      1880.0    2.2228E-4           0.
      1890.0    3.3125E-4           0.
      1900.0    1.9504E-4           0.
      1910.0    6.5787E-5           0.
      1920.0    4.9866E-5           0.
      1930.0    9.1460E-6           0.
      1940.0    4.3085E-5           0.
      1950.0    4.2947E-7           0.
      1960.0    7.1946E-5           0.
      1970.0    2.4637E-6           0.
      1980.0    4.7596E-7           0.
      1990.0    1.8112E-6           0.
      2000.0    4.0982E-7           0.
      2010.0    6.4849E-6           0.
      2020.0    2.5456E-5           0.
      2030.0    1.3641E-6           0.
      2040.0    1.3740E-6           0.
      2050.0    1.1331E-5           0.
      2060.0    7.5302E-6           0.
      2070.0    5.6578E-7           0.
      2080.0    2.4686E-6           0.
      2090.0    1.6523E-6           0.
      2100.0    1.8497E-5           0.
      2110.0    5.3636E-7           0.
      2120.0    2.5861E-6           0.
      2130.0    7.0574E-7           0.
      2140.0    1.0502E-6           0.
      2150.0    2.5575E-6           0.
      2160.0    4.0153E-6           0.
      2170.0    7.2499E-7           0.
      2180.0    4.0568E-7           0.
      2190.0    8.2587E-7           0.
      2200.0    3.6027E-6           0.
      2210.0    3.7468E-7           0.
      2220.0    1.3562E-6           0.
      2230.0    4.6085E-6           0.
      2240.0    3.1635E-7           0.
      2250.0    1.1914E-6           0.
      2260.0    1.5911E-6           0.
      2270.0    3.1211E-7           0.
      2280.0    6.1039E-7           0.
      2290.0    1.4135E-6           0.
      2300.0    3.4182E-6           0.
      2310.0    5.2876E-6           0.
      2320.0    8.7028E-6           0.
      2330.0    3.5642E-6           0.
      2340.0    4.2532E-7           0.
      2350.0    3.1211E-7           0.
      2360.0    8.6841E-7           0.
      2370.0    3.1211E-7           0.
      2380.0    7.5815E-7           0.
      2390.0    1.4944E-6           0.
      2400.0    2.5397E-6           0.
      2410.0    6.7455E-7           0.
      2420.0    3.4201E-7           0.
      2430.0    3.9255E-7           0.
      2440.0    3.3658E-6           0.
      2450.0    4.2157E-7           0.
      2460.0    3.1211E-7           0.
      2470.0    3.1211E-7           0.
      2480.0    3.1211E-7           0.
      2490.0    4.6253E-7           0.
      2500.0    4.7803E-7           0.
      2510.0    1.6819E-6           0.
      2520.0    1.1400E-6           0.
      2530.0    3.1211E-7           0.
      2540.0    1.3750E-6           0.
      2550.0    4.6372E-7           0.
      2560.0    3.6136E-7           0.
      2570.0    3.1211E-7           0.
      2580.0    3.1211E-7           0.
      2590.0    1.0295E-6           0.
      2600.0    1.8655E-6           0.
      2610.0    3.4665E-6           0.
      2620.0    1.5892E-6           0.
      2630.0    4.4467E-7           0.
      2640.0    3.1211E-7           0.
      2650.0    1.7076E-6           0.
      2660.0    8.8213E-7           0.
      2670.0    5.1317E-7           0.
      2680.0    1.5970E-6           0.
      2690.0    5.1662E-6           0.
      2700.0    8.2873E-7           0.
      2710.0    4.0035E-7           0.
      2720.0    9.4717E-7           0.
      2730.0    1.7204E-6           0.
      2740.0    1.7984E-6           0.
      2750.0    1.8942E-6           0.
      2760.0    3.1211E-7           0.
      2770.0    6.6438E-7           0.
      2780.0    6.2638E-7           0.
      2790.0    7.8204E-7           0.
      2800.0    1.0749E-6           0.
      2810.0    3.1211E-7           0.
      2820.0    2.8457E-6           0.
      2830.0    2.7272E-6           0.
      2840.0    4.7892E-6           0.
      2850.0    6.9765E-7           0.
      2860.0    5.9815E-7           0.
      2870.0    3.1211E-7           0.
      2880.0    1.2723E-6           0.
      2890.0    2.5298E-6           0.
      2900.0    3.1211E-7           0.
      2910.0    1.7323E-6           0.
      2920.0    7.1176E-7           0.
      2930.0    7.9349E-7           0.
      2940.0    3.1211E-7           0.
      2950.0    3.1211E-7           0.
      2960.0    4.2542E-7           0.
      2970.0    6.9074E-7           0.
      2980.0    5.6311E-6           0.
      2990.0    2.5782E-6           0.
      3000.0    1.1470E-6           0.
      3010.0    3.3372E-7           0.
      3020.0    6.1839E-7           0.
      3030.0    5.5364E-7           0.
      3040.0    1.1450E-6           0.
      3050.0    3.1211E-7           0.
      3060.0    5.2324E-7           0.
      3070.0    3.1043E-6           0.
      3080.0    3.7172E-7           0.
      3090.0    1.0522E-6           0.
      3100.0    2.8763E-6           0.
      3110.0    1.5141E-6           0.
      3120.0    6.8205E-6           0.
      3130.0    4.3470E-6           0.
      3140.0    3.2622E-7           0.
      3150.0    1.5526E-6           0.
      3160.0    3.3984E-7           0.
      3170.0    1.2851E-6           0.
      3180.0    3.1290E-6           0.
      3190.0    5.0971E-7           0.
      3200.0    3.9304E-6           0.
      3210.0    8.9713E-7           0.
      3220.0    1.1312E-6           0.
      3230.0    5.0103E-7           0.
      3240.0    1.1341E-6           0.
      3250.0    3.1211E-7           0.
      3260.0    1.5665E-6           0.
      3270.0    1.2447E-6           0.
      3280.0    1.9050E-6           0.
      3290.0    3.1211E-7           0.
      3300.0    3.1211E-7           0.
      3310.0    4.3124E-7           0.
      3320.0    1.1825E-6           0.
      3330.0    1.2911E-6           0.
      3340.0    5.4969E-7           0.
      3350.0    5.3617E-6           0.
      3360.0    4.3795E-7           0.
      3370.0    7.1749E-7           0.
      3380.0    3.3737E-7           0.
      3390.0    2.0126E-6           0.
      3400.0    4.1417E-6           0.
      3410.0    3.1211E-7           0.
      3420.0    1.0433E-6           0.
      3430.0    3.8100E-6           0.
      3440.0    8.8114E-6           0.
      3450.0    7.8204E-7           0.
      3460.0    3.6245E-7           0.
      3470.0    7.6250E-6           0.
      3480.0    1.9060E-6           0.
      3490.0    7.1127E-7           0.
      3500.0    1.7579E-6           0.
      3510.0    3.6472E-7           0.
      3520.0    4.8879E-6           0.
      3530.0    4.4427E-6           0.
      3540.0    5.6094E-7           0.
      3550.0    3.1398E-6           0.
      3560.0    3.8525E-7           0.
      3570.0    1.2082E-6           0.
      3580.0    3.1211E-7           0.
      3590.0    3.1211E-7           0.
      3600.0    1.1094E-6           0.
      3610.0    3.9847E-7           0.
      3620.0    3.1211E-7           0.
      3630.0    4.1367E-6           0.
      3640.0    7.5598E-7           0.
      3650.0    1.4194E-6           0.
      3660.0    1.3019E-6           0.
      3670.0    3.1211E-7           0.
      3680.0    3.1211E-7           0.
      3690.0    1.1173E-6           0.
      3700.0    2.7006E-6           0.
      3710.0    4.0657E-7           0.
      3720.0    4.6964E-6           0.
      3730.0    1.4204E-6           0.
      3740.0    3.1211E-7           0.
      3750.0    3.6432E-7           0.
      3760.0    3.1211E-7           0.
      3770.0    1.0255E-6           0.
      3780.0    9.0167E-7           0.
      3790.0    4.7013E-7           0.
      3800.0    8.7245E-7           0.
      3810.0    8.0030E-7           0.
      3820.0    1.2200E-6           0.
      3830.0    6.6429E-7           0.
      3840.0    1.5941E-6           0.
      3850.0    3.1211E-7           0.
      3860.0    9.9396E-7           0.
      3870.0    1.3848E-6           0.
      3880.0    1.3651E-6           0.
      3890.0    1.0818E-6           0.
      3900.0    2.5841E-6           0.
      3910.0    8.0603E-7           0.
      3920.0    1.5132E-6           0.
      3930.0    1.4589E-6           0.
      3940.0    3.1299E-6           0.
      3950.0    1.1608E-6           0.
      3960.0    1.5793E-6           0.
      3970.0    1.0729E-6           0.
      3980.0    4.3717E-6           0.
      3990.0    3.5070E-6           0.
      4000.0    1.4658E-6           0.
      4010.0    4.5335E-6           0.
      4020.0    5.6282E-6           0.
      4030.0    4.0667E-6           0.
      4040.0    4.0084E-6           0.
      4050.0    3.1773E-6           0.
      4060.0    3.4695E-6           0.
      4070.0    4.1812E-6           0.
      4080.0    4.0025E-6           0.
      4090.0    2.3265E-6           0.
      4100.0    3.4912E-6           0.
      4110.0    2.5673E-6           0.
      4120.0    5.1514E-6           0.
      4130.0    4.5700E-6           0.
      4140.0    3.4162E-6           0.
      4150.0    5.6380E-6           0.
      4160.0    4.0410E-6           0.
      4170.0    3.7814E-6           0.
      4180.0    3.8377E-6           0.
      4190.0    3.2652E-6           0.
      4200.0    3.5169E-6           0.
      4210.0    4.2206E-6           0.
      4220.0    3.2632E-6           0.
      4230.0    1.3059E-6           0.
      4240.0    2.4390E-6           0.
      4250.0    2.6127E-6           0.
      4260.0    9.0493E-7           0.
      4270.0    3.1211E-7           0.
      4280.0    3.1211E-7           0.
      4290.0    3.1211E-7           0.
      4300.0    3.1211E-7           0.
      4310.0    3.1211E-7           0.
      4320.0    3.1211E-7           0.
      4330.0    3.1211E-7           0.
      4340.0    3.1211E-7           0.
      4350.0    3.1211E-7           0.
      4360.0    3.1211E-7           0.
      4370.0    3.1211E-7           0.
      4380.0    3.1211E-7           0.
      4390.0    3.4034E-6           0.
      4400.0    3.2010E-5           0.
      4410.0    4.5868E-5           0.
      4420.0    6.7238E-5           0.
      4430.0    7.0199E-5           0.
      4440.0    6.0674E-5           0.
      4450.0    5.3251E-5           0.
      4460.0    2.9987E-5           0.
      4470.0    1.6099E-5           0.
      4480.0    9.6682E-6           0.
      4490.0    6.3497E-6           0.
      4500.0    4.9511E-6           0.
      4510.0    4.4299E-6           0.
      4520.0    4.2068E-6           0.
      4530.0    3.3895E-6           0.
      4540.0    5.0034E-6           0.
      4550.0    5.9115E-6           0.
      4560.0    7.0801E-6           0.
      4570.0    7.5095E-6           0.
      4580.0    5.5492E-6           0.
      4590.0    2.9996E-6           0.
      4600.0    1.8260E-6           0.
      4610.0    2.5417E-6           0.
      4620.0    1.0710E-6           0.
      4630.0    1.6494E-6           0.
      4640.0    1.1785E-6           0.
      4650.0    2.2712E-6           0.
      4660.0    2.4114E-6           0.
      4670.0    1.2772E-6           0.
      4680.0    1.3750E-6           0.
      4690.0    6.1355E-7           0.
      4700.0    9.0078E-7           0.
      4710.0    4.0420E-7           0.
      4720.0    4.9086E-7           0.
      4730.0    6.9390E-7           0.
      4740.0    5.6351E-7           0.
      4750.0    5.5709E-7           0.
      4760.0    3.9650E-7           0.
      4770.0    3.1211E-7           0.
      4780.0    8.6880E-7           0.
      4790.0    6.8748E-7           0.
      4800.0    5.5403E-7           0.
      4810.0    1.0788E-6           0.
      4820.0    7.3812E-7           0.
      4830.0    3.7557E-7           0.
      4840.0    3.1211E-7           0.
      4850.0    3.1694E-7           0.
      4860.0    3.6057E-7           0.
      4870.0    3.1211E-7           0.
      4880.0    3.1211E-7           0.
      4890.0    3.1211E-7           0.
      4900.0    3.3649E-7           0.
      4910.0    3.8998E-7           0.
      4920.0    3.2662E-7           0.
      4930.0    9.3829E-7           0.
      4940.0    1.0404E-6           0.
      4950.0    3.1211E-7           0.
      4960.0    3.1211E-7           0.
      4970.0    3.1211E-7           0.
      4980.0    3.1211E-7           0.
      4990.0    3.6156E-7           0.
      5000.0    5.8453E-7           0.
      5010.0    7.3624E-7           0.
      5020.0    3.1211E-7           0.
      5030.0    3.1211E-7           0.
      5040.0    3.1211E-7           0.
      5050.0    3.1211E-7           0.
      5060.0    3.1211E-7           0.
      5070.0    3.9956E-7           0.
      5080.0    4.6105E-7           0.
      5090.0    3.1211E-7           0.
      5100.0    3.5366E-7           0.
      5110.0    4.9787E-7           0.
      5120.0    4.5839E-7           0.
      5130.0    3.3145E-7           0.
      5140.0    3.1211E-7           0.
      5150.0    3.1211E-7           0.
      5160.0    3.1211E-7           0.
      5170.0    3.1211E-7           0.
      5180.0    4.8306E-7           0.
      5190.0    3.2158E-7           0.
      5200.0    3.1211E-7           0.
      5210.0    4.6569E-7           0.
      5220.0    4.7803E-7           0.
      5230.0    3.1211E-7           0.
      5240.0    4.1101E-7           0.
      5250.0    3.3224E-7           0.
      5260.0    3.1211E-7           0.
      5270.0    1.0522E-6           0.
      5280.0    9.0769E-7           0.
      5290.0    3.6432E-7           0.
      5300.0    3.1211E-7           0.
      5310.0    9.6701E-7           0.
      5320.0    3.1211E-7           0.
      5330.0    3.1211E-7           0.
      5340.0    3.1211E-7           0.
      5350.0    4.4111E-7           0.
      5360.0    7.8096E-7           0.
      5370.0    3.1211E-7           0.
      5380.0    3.1211E-7           0.
      5390.0    4.2127E-7           0.
      5400.0    3.1211E-7           0.
      5410.0    5.3498E-7           0.
      5420.0    5.1613E-7           0.
      5430.0    3.1211E-7           0.
      5440.0    3.1211E-7           0.
      5450.0    3.1447E-7           0.
      5460.0    3.5317E-7           0.
      5470.0    3.1211E-7           0.
      5480.0    3.1211E-7           0.
      5490.0    3.1211E-7           0.
      5500.0    6.1227E-7           0.
      5510.0    7.0752E-7           0.
      5520.0    3.1211E-7           0.
      5530.0    3.1211E-7           0.
      5540.0    3.7518E-7           0.
      5550.0    9.4717E-7           0.
      5560.0    9.4027E-7           0.
      5570.0    9.1904E-7           0.
      5580.0    9.8636E-7           0.
      5590.0    1.1815E-6           0.
      5600.0    3.1980E-6           0.
      5610.0    5.4732E-6           0.
      5620.0    6.1602E-6           0.
      5630.0    7.0248E-6           0.
      5640.0    8.4205E-6           0.
      5650.0    1.0710E-5           0.
      5660.0    1.1243E-5           0.
      5670.0    1.0344E-5           0.
      5680.0    1.0492E-5           0.
      5690.0    7.7987E-6           0.
      5700.0    7.4532E-6           0.
      5710.0    6.1296E-6           0.
      5720.0    5.1939E-6           0.
      5730.0    4.8800E-6           0.
      5740.0    7.0900E-6           0.
      5750.0    5.9717E-6           0.
      5760.0    5.4475E-6           0.
      5770.0    5.9954E-6           0.
      5780.0    7.1058E-6           0.
      5790.0    6.7347E-6           0.
      5800.0    7.1028E-6           0.
      5810.0    7.9892E-6           0.
      5820.0    1.0186E-5           0.
      5830.0    1.1450E-5           0.
      5840.0    1.4954E-5           0.
      5850.0    2.2297E-5           0.
      5860.0    3.8386E-5           0.
      5870.0    8.0563E-5           0.
      5880.0    1.5625E-4           0.
      5890.0    3.3885E-4           0.
      5900.0    6.4839E-4           0.
      5910.0    0.0012901           0.
      5920.0    0.0022752           0.
      5930.0    0.0041851           0.
      5940.0    0.0066596           0.
      5942.0    0.0056598           0.
      5944.0    0.0062707           0.
      5946.0     0.006864           0.
      5948.0    0.0076931           0.
      5950.0    0.0085005           0.
      5952.0    0.0093326           0.
      5954.0     0.010255           0.
      5956.0     0.011243           0.
      5958.0     0.012466           0.
      5960.0     0.013602           0.
      5962.0     0.014944           0.
      5964.0     0.016286           0.
      5966.0     0.017727           0.
      5968.0     0.019336           0.
      5970.0     0.020896           0.
      5972.0     0.022663           0.
      5974.0     0.024647           0.
      5976.0     0.026621           0.
      5978.0     0.028842           0.
      5980.0     0.031043           0.
      5982.0     0.033471           0.
      5984.0     0.035978           0.
      5986.0     0.038544           0.
      5988.0     0.041308           0.
      5990.0     0.044289           0.
      5992.0     0.047448           0.
      5994.0     0.050507           0.
      5996.0     0.053607           0.
      5998.0       0.0572           0.
      6000.0     0.060743           0.
      6002.0     0.064681           0.
      6004.0       0.0686           0.
      6006.0     0.072716           0.
      6008.0     0.076901           0.
      6010.0     0.081244           0.
      6012.0     0.085873           0.
      6014.0     0.090493           0.
      6016.0     0.095547           0.
      6018.0      0.10058           0.
      6020.0      0.10581           0.
      6022.0      0.11144           0.
      6024.0      0.11716           0.
      6026.0      0.12299           0.
      6028.0      0.12911           0.
      6030.0      0.13562           0.
      6032.0      0.14233           0.
      6034.0      0.14885           0.
      6036.0      0.15566           0.
      6038.0      0.16247           0.
      6040.0      0.17017           0.
      6042.0      0.17737           0.
      6044.0      0.18517           0.
      6046.0      0.19257           0.
      6048.0      0.20047           0.
      6050.0      0.20847           0.
      6052.0      0.21607           0.
      6054.0      0.22475           0.
      6056.0      0.23265           0.
      6058.0      0.24084           0.
      6060.0      0.24884           0.
      6062.0      0.25713           0.
      6064.0      0.26532           0.
      6066.0      0.27351           0.
      6068.0       0.2817           0.
      6070.0       0.2899           0.
      6072.0      0.29779           0.
      6074.0      0.30589           0.
      6076.0      0.31438           0.
      6078.0      0.32168           0.
      6080.0      0.32958           0.
      6082.0      0.33747           0.
      6084.0      0.34616           0.
      6086.0      0.35386           0.
      6088.0      0.36235           0.
      6090.0      0.36985           0.
      6092.0      0.37765           0.
      6094.0      0.38643           0.
      6096.0      0.39364           0.
      6098.0      0.40163           0.
      6100.0      0.40943           0.
      6102.0      0.41792           0.
      6104.0      0.42532           0.
      6106.0      0.43401           0.
      6108.0      0.44171           0.
      6110.0       0.4495           0.
      6112.0      0.45671           0.
      6114.0      0.46441           0.
      6116.0       0.4727           0.
      6118.0       0.4804           0.
      6120.0      0.48672           0.
      6122.0      0.49372           0.
      6124.0      0.50053           0.
      6126.0      0.50754           0.
      6128.0      0.51475           0.
      6130.0      0.52097           0.
      6132.0      0.52689           0.
      6134.0      0.53311           0.
      6136.0      0.53903           0.
      6138.0      0.54416           0.
      6140.0      0.55127           0.
      6142.0       0.5566           0.
      6144.0      0.56222           0.
      6146.0      0.56755           0.
      6148.0      0.57279           0.
      6150.0      0.57762           0.
      6152.0      0.58345           0.
      6154.0      0.58779           0.
      6156.0      0.59312           0.
      6158.0      0.59786           0.
      6160.0       0.6024           0.
      6162.0      0.60802           0.
      6164.0      0.61207           0.
      6166.0       0.6173           0.
      6168.0      0.62155           0.
      6170.0       0.6248           0.
      6172.0      0.63063           0.
      6174.0      0.63625           0.
      6176.0      0.63813           0.
      6178.0      0.65027           0.
      6180.0      0.65116           0.
      6182.0      0.65343           0.
      6184.0      0.65876           0.
      6186.0      0.66399           0.
      6188.0      0.66892           0.
      6190.0      0.67277           0.
      6192.0       0.6787           0.
      6194.0      0.68304           0.
      6196.0      0.68778           0.
      6198.0      0.69291           0.
      6200.0      0.69666           0.
      6202.0      0.70041           0.
      6204.0      0.70535           0.
      6206.0        0.709           0.
      6208.0      0.71324           0.
      6210.0      0.71847           0.
      6212.0      0.72114           0.
      6214.0      0.72558           0.
      6216.0      0.73081           0.
      6218.0      0.73358           0.
      6220.0      0.73703           0.
      6222.0      0.74147           0.
      6224.0      0.74503           0.
      6226.0      0.74888           0.
      6228.0      0.75203           0.
      6230.0      0.75648           0.
      6232.0      0.75885           0.
      6234.0      0.76082           0.
      6236.0      0.76487           0.
      6238.0      0.76852           0.
      6240.0      0.77217           0.
      6242.0      0.77563           0.
      6244.0      0.77977           0.
      6246.0      0.78283           0.
      6248.0       0.7855           0.
      6250.0      0.78915           0.
      6252.0      0.79181           0.
      6254.0      0.79576           0.
      6256.0      0.79872           0.
      6258.0      0.80208           0.
      6260.0      0.80534           0.
      6262.0      0.80918           0.
      6264.0      0.81244           0.
      6266.0      0.81461           0.
      6268.0      0.81787           0.
      6270.0      0.82142           0.
      6272.0      0.82557           0.
      6274.0      0.82883           0.
      6276.0      0.83139           0.
      6278.0      0.83406           0.
      6280.0      0.83801           0.
      6282.0      0.84018           0.
      6284.0      0.84324           0.
      6286.0      0.84699           0.
      6288.0      0.85015           0.
      6290.0      0.85192           0.
      6292.0      0.85449           0.
      6294.0      0.85755           0.
      6296.0      0.85883           0.
      6298.0       0.8614           0.
      6300.0      0.86466           0.
      6302.0      0.86604           0.
      6304.0      0.86791           0.
      6306.0      0.86999           0.
      6308.0      0.87236           0.
      6310.0      0.87482           0.
      6312.0       0.8768           0.
      6314.0      0.87907           0.
      6316.0      0.88075           0.
      6318.0      0.88183           0.
      6320.0      0.88519           0.
      6322.0      0.88499           0.
      6324.0      0.88687           0.
      6326.0      0.88845           0.
      6328.0      0.89012           0.
      6330.0        0.892           0.
      6332.0      0.89338           0.
      6334.0      0.89387           0.
      6336.0      0.89496           0.
      6338.0      0.89565           0.
      6340.0      0.89565           0.
      6342.0      0.89713           0.
      6344.0      0.89733           0.
      6346.0       0.8994           0.
      6348.0       0.8998           0.
      6350.0      0.90019           0.
      6352.0      0.90187           0.
      6354.0      0.90325           0.
      6356.0      0.90118           0.
      6358.0      0.90217           0.
      6360.0      0.90394           0.
      6362.0      0.90286           0.
      6364.0      0.90325           0.
      6366.0      0.90493           0.
      6368.0      0.90325           0.
      6370.0      0.90434           0.
      6372.0      0.90572           0.
      6374.0      0.90621           0.
      6376.0      0.90621           0.
      6378.0      0.90404           0.
      6380.0      0.90404           0.
      6382.0      0.90444           0.
      6384.0      0.90503           0.
      6386.0      0.90601           0.
      6388.0      0.90453           0.
      6390.0      0.90424           0.
      6392.0      0.90503           0.
      6394.0      0.90513           0.
      6396.0      0.90582           0.
      6398.0      0.90522           0.
      6400.0      0.90434           0.
      6402.0      0.90483           0.
      6404.0      0.90503           0.
      6406.0      0.90483           0.
      6408.0      0.90355           0.
      6410.0      0.90453           0.
      6412.0      0.90434           0.
      6414.0      0.90434           0.
      6416.0      0.90453           0.
      6418.0      0.90315           0.
      6420.0      0.90345           0.
      6422.0      0.90236           0.
      6424.0      0.90305           0.
      6426.0      0.90167           0.
      6428.0      0.90187           0.
      6430.0      0.90197           0.
      6432.0      0.90039           0.
      6434.0      0.90059           0.
      6436.0       0.8993           0.
      6438.0       0.8999           0.
      6440.0       0.8999           0.
      6442.0       0.8997           0.
      6444.0      0.89999           0.
      6446.0      0.90049           0.
      6448.0       0.8997           0.
      6450.0       0.8998           0.
      6452.0      0.89881           0.
      6454.0      0.89792           0.
      6456.0      0.89881           0.
      6458.0      0.89812           0.
      6460.0      0.89782           0.
      6462.0      0.89713           0.
      6464.0      0.89812           0.
      6466.0      0.89841           0.
      6468.0       0.8992           0.
      6470.0      0.89871           0.
      6472.0      0.89881           0.
      6474.0      0.90088           0.
      6476.0       0.8997           0.
      6478.0      0.90098           0.
      6480.0      0.90246           0.
      6482.0      0.90236           0.
      6484.0      0.90335           0.
      6486.0      0.90365           0.
      6488.0      0.90325           0.
      6490.0      0.90434           0.
      6492.0      0.90434           0.
      6494.0      0.90444           0.
      6496.0      0.90631           0.
      6498.0       0.9069           0.
      6500.0       0.9069           0.
      6502.0       0.9069           0.
      6504.0      0.90858           0.
      6506.0      0.90868           0.
      6508.0      0.91006           0.
      6510.0      0.91125           0.
      6512.0      0.91065           0.
      6514.0      0.91085           0.
      6516.0      0.91125           0.
      6518.0      0.91204           0.
      6520.0      0.91302           0.
      6522.0      0.91213           0.
      6524.0      0.91332           0.
      6526.0      0.91243           0.
      6528.0      0.91223           0.
      6530.0      0.91213           0.
      6532.0      0.91411           0.
      6534.0       0.9151           0.
      6536.0      0.91569           0.
      6538.0      0.91628           0.
      6540.0      0.91825           0.
      6542.0      0.91816           0.
      6544.0      0.91766           0.
      6546.0      0.91816           0.
      6548.0      0.91895           0.
      6550.0      0.91973           0.
      6552.0      0.92013           0.
      6554.0      0.92082           0.
      6556.0      0.92112           0.
      6558.0       0.9223           0.
      6560.0       0.9224           0.
      6562.0      0.92329           0.
      6564.0      0.92408           0.
      6566.0      0.92595           0.
      6568.0      0.92655           0.
      6570.0      0.92832           0.
      6572.0      0.92852           0.
      6574.0      0.92961           0.
      6576.0      0.93148           0.
      6578.0      0.93217           0.
      6580.0      0.93355           0.
      6582.0      0.93385           0.
      6584.0      0.93474           0.
      6586.0      0.93533           0.
      6588.0       0.9375           0.
      6590.0      0.93819           0.
      6592.0      0.94017           0.
      6594.0      0.94145           0.
      6596.0      0.94323           0.
      6598.0      0.94421           0.
      6600.0      0.94411           0.
      6602.0      0.94579           0.
      6604.0      0.94757           0.
      6606.0      0.94935           0.
      6608.0      0.94905           0.
      6610.0      0.95014           0.
      6612.0      0.95112           0.
      6614.0      0.95211           0.
      6616.0      0.95339           0.
      6618.0      0.95438           0.
      6620.0      0.95458           0.
      6622.0      0.95547           0.
      6624.0      0.95596           0.
      6626.0      0.95714           0.
      6628.0      0.95714           0.
      6630.0      0.95714           0.
      6632.0      0.95724           0.
      6634.0      0.95843           0.
      6636.0       0.9603           0.
      6638.0      0.95991           0.
      6640.0      0.95971           0.
      6642.0      0.95951           0.
      6644.0       0.9602           0.
      6646.0      0.96109           0.
      6648.0       0.9603           0.
      6650.0      0.96277           0.
      6652.0      0.96287           0.
      6654.0      0.96316           0.
      6656.0      0.96386           0.
      6658.0      0.96445           0.
      6660.0      0.96435           0.
      6662.0      0.96544           0.
      6664.0      0.96435           0.
      6666.0      0.96652           0.
      6668.0      0.96701           0.
      6670.0      0.96632           0.
      6672.0      0.96662           0.
      6674.0      0.96741           0.
      6676.0      0.96721           0.
      6678.0      0.96721           0.
      6680.0       0.9685           0.
      6682.0       0.9684           0.
      6684.0      0.96879           0.
      6686.0      0.96958           0.
      6688.0      0.97007           0.
      6690.0      0.97027           0.
      6692.0      0.97106           0.
      6694.0      0.97077           0.
      6696.0      0.97086           0.
      6698.0      0.97244           0.
      6700.0      0.97146           0.
      6702.0      0.97096           0.
      6704.0      0.97126           0.
      6706.0      0.97195           0.
      6708.0      0.97225           0.
      6710.0      0.97146           0.
      6712.0      0.97234           0.
      6714.0      0.97185           0.
      6716.0      0.97057           0.
      6718.0      0.97185           0.
      6720.0      0.97017           0.
      6722.0      0.97077           0.
      6724.0      0.97254           0.
      6726.0      0.97225           0.
      6728.0      0.97106           0.
      6730.0      0.97146           0.
      6732.0      0.97096           0.
      6734.0      0.97195           0.
      6736.0      0.97195           0.
      6738.0      0.97096           0.
      6740.0      0.97067           0.
      6742.0      0.97116           0.
      6744.0      0.97185           0.
      6746.0      0.97096           0.
      6748.0      0.97116           0.
      6750.0      0.96988           0.
      6752.0      0.97027           0.
      6754.0      0.97037           0.
      6756.0      0.97086           0.
      6758.0      0.97057           0.
      6760.0      0.97155           0.
      6762.0      0.97086           0.
      6764.0      0.97146           0.
      6766.0      0.97225           0.
      6768.0      0.97106           0.
      6770.0      0.97175           0.
      6772.0      0.97155           0.
      6774.0      0.97106           0.
      6776.0      0.97244           0.
      6778.0      0.97225           0.
      6780.0      0.97274           0.
      6782.0      0.97264           0.
      6784.0      0.97234           0.
      6786.0      0.97274           0.
      6788.0      0.97185           0.
      6790.0      0.97037           0.
      6792.0      0.97225           0.
      6794.0      0.97165           0.
      6796.0      0.97284           0.
      6798.0      0.97057           0.
      6800.0      0.97077           0.
      6802.0      0.97037           0.
      6804.0      0.97027           0.
      6806.0      0.96988           0.
      6808.0      0.97096           0.
      6810.0      0.97047           0.
      6812.0      0.97077           0.
      6814.0      0.97027           0.
      6816.0      0.96978           0.
      6818.0      0.97077           0.
      6820.0      0.96968           0.
      6822.0      0.96909           0.
      6824.0       0.9682           0.
      6826.0       0.9683           0.
      6828.0      0.96889           0.
      6830.0       0.9684           0.
      6832.0       0.9678           0.
      6834.0      0.96968           0.
      6836.0      0.96879           0.
      6838.0      0.96968           0.
      6840.0      0.96869           0.
      6842.0      0.96998           0.
      6844.0      0.97067           0.
      6846.0      0.97067           0.
      6848.0      0.97047           0.
      6850.0      0.96889           0.
      6852.0      0.96998           0.
      6854.0      0.96998           0.
      6856.0      0.96978           0.
      6858.0      0.97077           0.
      6860.0      0.97086           0.
      6862.0      0.96988           0.
      6864.0      0.97086           0.
      6866.0      0.96988           0.
      6868.0      0.97205           0.
      6870.0      0.97067           0.
      6872.0      0.97146           0.
      6874.0      0.96978           0.
      6876.0      0.97007           0.
      6878.0      0.97185           0.
      6880.0      0.97007           0.
      6882.0      0.96988           0.
      6884.0      0.96958           0.
      6886.0      0.96879           0.
      6888.0      0.96938           0.
      6890.0      0.96988           0.
      6892.0      0.96751           0.
      6894.0        0.968           0.
      6896.0      0.96859           0.
      6898.0      0.96711           0.
      6900.0      0.96672           0.
      6902.0      0.96711           0.
      6904.0      0.96721           0.
      6906.0      0.96701           0.
      6908.0      0.96741           0.
      6910.0      0.96692           0.
      6912.0      0.96721           0.
      6914.0      0.96395           0.
      6916.0      0.96544           0.
      6918.0      0.96455           0.
      6920.0      0.96455           0.
      6922.0      0.96386           0.
      6924.0      0.96297           0.
      6926.0      0.96455           0.
      6928.0      0.96297           0.
      6930.0      0.96247           0.
      6932.0      0.96159           0.
      6934.0      0.96011           0.
      6936.0      0.95932           0.
      6938.0       0.9602           0.
      6940.0      0.95862           0.
      6942.0      0.95941           0.
      6944.0      0.95862           0.
      6946.0      0.95803           0.
      6948.0      0.95665           0.
      6950.0      0.95645           0.
      6952.0      0.95675           0.
      6954.0      0.95359           0.
      6956.0      0.95369           0.
      6958.0        0.953           0.
      6960.0      0.95053           0.
      6962.0      0.94905           0.
      6964.0      0.94826           0.
      6966.0      0.94688           0.
      6968.0        0.945           0.
      6970.0      0.94323           0.
      6972.0      0.94293           0.
      6974.0      0.94056           0.
      6976.0      0.93888           0.
      6978.0       0.9376           0.
      6980.0       0.9373           0.
      6982.0      0.93612           0.
      6984.0      0.93326           0.
      6986.0      0.93207           0.
      6988.0      0.93118           0.
      6990.0      0.93138           0.
      6992.0      0.92803           0.
      6994.0      0.92566           0.
      6996.0      0.92566           0.
      6998.0      0.92546           0.
      7000.0      0.92279           0.
      7002.0      0.92102           0.
      7004.0      0.91904           0.
      7006.0      0.91746           0.
      7008.0      0.91727           0.
      7010.0      0.91618           0.
      7012.0        0.915           0.
      7014.0      0.91421           0.
      7016.0        0.915           0.
      7018.0      0.91342           0.
      7020.0      0.91174           0.
      7022.0      0.91243           0.
      7024.0      0.91134           0.
      7026.0      0.91085           0.
      7028.0      0.90838           0.
      7030.0      0.90898           0.
      7032.0      0.90789           0.
      7034.0      0.90838           0.
      7036.0       0.9072           0.
      7038.0      0.90582           0.
      7040.0       0.9068           0.
      7042.0      0.90592           0.
      7044.0      0.90473           0.
      7046.0      0.90394           0.
      7048.0      0.90286           0.
      7050.0      0.90029           0.
      7052.0       0.8993           0.
      7054.0      0.89713           0.
      7056.0      0.89595           0.
      7058.0      0.89318           0.
      7060.0      0.89072           0.
      7062.0      0.88933           0.
      7064.0      0.88726           0.
      7066.0       0.8844           0.
      7068.0      0.88144           0.
      7070.0       0.8769           0.
      7072.0      0.87522           0.
      7074.0      0.87315           0.
      7076.0      0.87097           0.
      7078.0      0.86624           0.
      7080.0      0.86318           0.
      7082.0      0.85943           0.
      7084.0      0.85577           0.
      7086.0       0.8535           0.
      7088.0      0.84956           0.
      7090.0      0.84521           0.
      7092.0      0.84255           0.
      7094.0      0.84087           0.
      7096.0      0.83801           0.
      7098.0      0.83643           0.
      7100.0      0.83307           0.
      7102.0      0.83129           0.
      7104.0      0.82962           0.
      7106.0      0.82774           0.
      7108.0      0.82596           0.
      7110.0      0.82557           0.
      7112.0       0.8234           0.
      7114.0      0.82261           0.
      7116.0      0.82182           0.
      7118.0      0.82221           0.
      7120.0      0.82221           0.
      7122.0       0.8229           0.
      7124.0      0.82281           0.
      7126.0      0.82409           0.
      7128.0      0.82369           0.
      7130.0      0.82498           0.
      7132.0      0.82705           0.
      7134.0      0.82833           0.
      7136.0       0.8307           0.
      7138.0       0.8306           0.
      7140.0      0.83208           0.
      7142.0      0.83317           0.
      7144.0      0.83514           0.
      7146.0      0.83811           0.
      7148.0      0.83978           0.
      7150.0      0.83949           0.
      7152.0      0.84205           0.
      7154.0      0.84452           0.
      7156.0      0.84561           0.
      7158.0      0.84521           0.
      7160.0       0.8463           0.
      7162.0      0.84817           0.
      7164.0      0.84926           0.
      7166.0      0.84827           0.
      7168.0      0.84758           0.
      7170.0      0.84798           0.
      7172.0      0.84729           0.
      7174.0      0.84778           0.
      7176.0      0.84827           0.
      7178.0      0.84847           0.
      7180.0      0.84719           0.
      7182.0      0.84511           0.
      7184.0      0.84541           0.
      7186.0      0.84334           0.
      7188.0      0.84393           0.
      7190.0      0.84274           0.
      7192.0      0.84215           0.
      7194.0      0.84146           0.
      7196.0      0.84136           0.
      7198.0      0.83939           0.
      7200.0      0.83929           0.
      7202.0      0.83939           0.
      7204.0       0.8389           0.
      7206.0      0.83909           0.
      7208.0       0.8385           0.
      7210.0       0.8389           0.
      7212.0       0.8389           0.
      7214.0      0.83959           0.
      7216.0      0.83968           0.
      7218.0      0.84393           0.
      7220.0       0.8459           0.
      7222.0      0.84442           0.
      7224.0      0.84729           0.
      7226.0      0.84689           0.
      7228.0      0.84975           0.
      7230.0      0.85271           0.
      7232.0      0.85538           0.
      7234.0      0.85745           0.
      7236.0      0.86091           0.
      7238.0      0.86485           0.
      7240.0      0.86801           0.
      7242.0      0.87127           0.
      7244.0      0.87601           0.
      7246.0      0.87838           0.
      7248.0        0.884           0.
      7250.0      0.88845           0.
      7252.0      0.89141           0.
      7254.0      0.89417           0.
      7256.0      0.89802           0.
      7258.0      0.90384           0.
      7260.0        0.907           0.
      7262.0      0.90907           0.
      7264.0      0.91204           0.
      7266.0      0.91667           0.
      7268.0        0.922           0.
      7270.0      0.92477           0.
      7272.0      0.92635           0.
      7274.0      0.93109           0.
      7276.0      0.93336           0.
      7278.0      0.93701           0.
      7280.0      0.94115           0.
      7282.0      0.94441           0.
      7284.0      0.94441           0.
      7286.0       0.9456           0.
      7288.0      0.94796           0.
      7290.0      0.94895           0.
      7292.0      0.95063           0.
      7294.0       0.9529           0.
      7296.0      0.95566           0.
      7298.0      0.95507           0.
      7300.0      0.95556           0.
      7302.0      0.95438           0.
      7304.0      0.95537           0.
      7306.0      0.95606           0.
      7308.0       0.9532           0.
      7310.0      0.95112           0.
      7312.0      0.95053           0.
      7314.0      0.94806           0.
      7316.0      0.94441           0.
      7318.0      0.94254           0.
      7320.0       0.9379           0.
      7322.0      0.93336           0.
      7324.0      0.92862           0.
      7326.0      0.92398           0.
      7328.0      0.91816           0.
      7330.0      0.91332           0.
      7332.0      0.90473           0.
      7334.0      0.89772           0.
      7336.0      0.88963           0.
      7338.0      0.88292           0.
      7340.0      0.87354           0.
      7342.0      0.86604           0.
      7344.0      0.85459           0.
      7346.0      0.84511           0.
      7348.0      0.83495           0.
      7350.0      0.82202           0.
      7352.0      0.81254           0.
      7354.0      0.79882           0.
      7356.0      0.78599           0.
      7358.0      0.77563           0.
      7360.0      0.76418           0.
      7362.0      0.74927           0.
      7364.0      0.73525           0.
      7366.0      0.72321           0.
      7368.0      0.70939           0.
      7370.0       0.6939           0.
      7372.0      0.68097           0.
      7374.0      0.66675           0.
      7376.0      0.65155           0.
      7378.0      0.63606           0.
      7380.0      0.62105           0.
      7382.0      0.60664           0.
      7384.0      0.58976           0.
      7386.0      0.57446           0.
      7388.0      0.55936           0.
      7390.0      0.54288           0.
      7392.0      0.52788           0.
      7394.0      0.51119           0.
      7396.0      0.49362           0.
      7398.0      0.47684           0.
      7400.0      0.46056           0.
      7402.0      0.44437           0.
      7404.0      0.43035           0.
      7406.0      0.41436           0.
      7408.0      0.39818           0.
      7410.0      0.38317           0.
      7412.0      0.36857           0.
      7414.0      0.35455           0.
      7416.0      0.34024           0.
      7418.0      0.32711           0.
      7420.0      0.31428           0.
      7422.0      0.30154           0.
      7424.0       0.2893           0.
      7426.0      0.27855           0.
      7428.0      0.26739           0.
      7430.0      0.25663           0.
      7432.0      0.24607           0.
      7434.0      0.23669           0.
      7436.0      0.22663           0.
      7438.0      0.21764           0.
      7440.0      0.20847           0.
      7442.0      0.20146           0.
      7444.0      0.19336           0.
      7446.0      0.18724           0.
      7448.0      0.18033           0.
      7450.0      0.17372           0.
      7452.0       0.1675           0.
      7454.0      0.16128           0.
      7456.0      0.15576           0.
      7458.0      0.15122           0.
      7460.0      0.14608           0.
      7462.0      0.14164           0.
      7464.0       0.1375           0.
      7466.0      0.13375           0.
      7468.0       0.1295           0.
      7470.0      0.12575           0.
      7472.0        0.122           0.
      7474.0      0.11845           0.
      7476.0      0.11548           0.
      7478.0      0.11331           0.
      7480.0      0.10986           0.
      7482.0       0.1068           0.
      7484.0      0.10413           0.
      7486.0      0.10177           0.
      7488.0     0.098705           0.
      7490.0     0.096534           0.
      7492.0     0.094046           0.
      7494.0     0.092023           0.
      7496.0     0.090029           0.
      7498.0     0.087364           0.
      7500.0     0.084729           0.
      7502.0     0.082508           0.
      7504.0     0.080119           0.
      7506.0     0.077809           0.
      7508.0     0.075095           0.
      7510.0     0.072963           0.
      7512.0     0.070781           0.
      7514.0     0.068028           0.
      7516.0     0.065945           0.
      7518.0     0.063556           0.
      7520.0     0.061493           0.
      7522.0     0.059164           0.
      7524.0      0.05714           0.
      7526.0     0.055137           0.
      7528.0     0.053163           0.
      7530.0     0.051001           0.
      7532.0     0.049056           0.
      7534.0     0.047398           0.
      7536.0     0.045602           0.
      7538.0      0.04421           0.
      7540.0     0.041969           0.
      7542.0     0.040499           0.
      7544.0     0.039275           0.
      7546.0     0.037745           0.
      7548.0     0.036146           0.
      7550.0      0.03503           0.
      7552.0     0.033856           0.
      7554.0     0.032543           0.
      7556.0     0.031329           0.
      7558.0     0.030253           0.
      7590.0     0.022179           0.
      7600.0     0.019267           0.
      7610.0     0.017125           0.
      7620.0     0.015072           0.
      7630.0     0.013513           0.
      7640.0     0.011933           0.
      7650.0     0.010729           0.
      7660.0    0.0094866           0.
      7670.0    0.0085143           0.
      7680.0    0.0075361           0.
      7690.0     0.006782           0.
      7700.0    0.0060388           0.
      7710.0    0.0054702           0.
      7720.0    0.0049116           0.
      7730.0    0.0044852           0.
      7740.0    0.0040607           0.
      7750.0     0.003735           0.
      7760.0    0.0033955           0.
      7770.0    0.0031171           0.
      7780.0    0.0028259           0.
      7790.0     0.002594           0.
      7800.0    0.0023531           0.
      7810.0    0.0021626           0.
      7820.0    0.0019731           0.
      7830.0     0.001827           0.
      7840.0    0.0016839           0.
      7850.0    0.0015724           0.
      7860.0    0.0014658           0.
      7870.0    0.0013819           0.
      7880.0    0.0012911           0.
      7890.0    0.0012151           0.
      7900.0    0.0011371           0.
      7910.0     0.001069           0.
      7920.0    9.9297E-4           0.
      7930.0    9.3049E-4           0.
      7940.0    8.6002E-4           0.
      7950.0    8.0464E-4           0.
      7960.0    7.4680E-4           0.
      7970.0    7.0229E-4           0.
      7980.0    6.5935E-4           0.
      7990.0    6.2895E-4           0.
      8000.0    6.3685E-4           0.
      8010.0    5.9677E-4           0.
      8020.0    5.5877E-4           0.
      8030.0    5.3557E-4           0.
      8040.0    4.9580E-4           0.
      8050.0    4.8533E-4           0.
      8060.0    4.5572E-4           0.
      8070.0    4.3489E-4           0.
      8080.0    4.2463E-4           0.
      8090.0    4.0074E-4           0.
      8100.0    3.9344E-4           0.
      8110.0    3.8021E-4           0.
      8120.0    3.6215E-4           0.
      8130.0    3.4882E-4           0.
      8140.0    3.3412E-4           0.
      8150.0    3.2760E-4           0.
      8160.0    3.0480E-4           0.
      8170.0    2.9513E-4           0.
      8180.0    2.8595E-4           0.
      8190.0    2.7746E-4           0.
      8200.0    2.7480E-4           0.
      8210.0    2.5851E-4           0.
      8220.0    2.5880E-4           0.
      8230.0    2.3975E-4           0.
      8240.0    2.2909E-4           0.
      8250.0    2.2021E-4           0.
      8260.0    2.1853E-4           0.
      8270.0    2.0462E-4           0.
      8280.0    1.9968E-4           0.
      8290.0    1.8833E-4           0.
      8300.0    1.8379E-4           0.
      8310.0    1.7905E-4           0.
      8320.0    1.8280E-4           0.
      8330.0    1.7066E-4           0.
      8340.0    1.8211E-4           0.
      8350.0    1.7115E-4           0.
      8360.0    1.7974E-4           0.
      8370.0    1.7737E-4           0.
      8380.0    1.8181E-4           0.
      8390.0    1.7520E-4           0.
      8400.0    1.6020E-4           0.
      8410.0    1.6069E-4           0.
      8420.0    1.6000E-4           0.
      8430.0    1.4608E-4           0.
      8440.0    1.4569E-4           0.
      8450.0    1.4954E-4           0.
      8460.0    1.5053E-4           0.
      8470.0    1.4569E-4           0.
      8480.0    1.3917E-4           0.
      8490.0    1.2940E-4           0.
      8500.0    1.3049E-4           0.
      8510.0    1.2901E-4           0.
      8520.0    1.3197E-4           0.
      8530.0    1.3562E-4           0.
      8540.0    1.2457E-4           0.
      8550.0    1.1183E-4           0.
      8560.0    1.1499E-4           0.
      8570.0    1.1223E-4           0.
      8580.0    1.1193E-4           0.
      8590.0    1.0009E-4           0.
      8600.0    9.5793E-5           0.
      8610.0    1.0779E-4           0.
      8620.0    1.0295E-4           0.
      8630.0    1.0028E-4           0.
      8640.0    1.0532E-4           0.
      8650.0    9.7817E-5           0.
      8660.0    9.4086E-5           0.
      8670.0    8.5824E-5           0.
      8680.0    7.9152E-5           0.
      8690.0    8.7502E-5           0.
      8700.0    7.6901E-5           0.
      8710.0    7.3723E-5           0.
      8720.0    5.6479E-5           0.
      8730.0    5.2679E-5           0.
      8740.0    4.4802E-5           0.
      8750.0    4.5197E-5           0.
      8760.0    3.0164E-5           0.
      8770.0    3.3955E-5           0.
      8780.0    3.7617E-5           0.
      8790.0    3.3451E-5           0.
      8800.0    3.0678E-5           0.
      8810.0    3.8357E-5           0.
      8820.0    3.2662E-5           0.
      8830.0    2.7786E-5           0.
      8840.0    3.1714E-5           0.
      8850.0    3.2780E-5           0.
      8860.0    1.9228E-5           0.
      8870.0    1.9020E-5           0.
      8880.0    3.4616E-5           0.
      8890.0    3.1566E-5           0.
      8900.0    2.7884E-5           0.
      8910.0    2.7707E-5           0.
      8920.0    2.0195E-5           0.
      8930.0    9.5882E-6           0.
      8940.0    1.5862E-5           0.
      8950.0    1.4628E-5           0.
      8960.0    1.5813E-5           0.
      8970.0    9.2240E-6           0.
      8980.0    2.4933E-5           0.
      8990.0    1.0315E-5           0.
      9000.0    2.3906E-5           0.
      9010.0    8.4748E-6           0.
      9020.0    1.2210E-5           0.
      9030.0    1.6592E-5           0.
      9040.0    7.8569E-6           0.
      9050.0    5.1623E-6           0.
      9060.0    1.2101E-5           0.
      9070.0    6.7258E-6           0.
      9080.0    1.0453E-5           0.
      9090.0    1.7747E-5           0.
      9100.0    4.4585E-6           0.
      9110.0    7.6585E-6           0.
      9120.0    1.8024E-5           0.
      9130.0    6.5333E-6           0.
      9140.0    1.9603E-5           0.
      9150.0    1.3641E-5           0.
      9160.0    1.4737E-5           0.
      9170.0    8.0672E-6           0.
      9180.0    1.0216E-5           0.
      9190.0    1.1618E-5           0.
      9200.0    1.7530E-5           0.
      9210.0    7.3002E-6           0.
      9220.0    1.9208E-5           0.
      9230.0    6.5066E-6           0.
      9240.0    1.4135E-5           0.
      9250.0    5.0162E-6           0.
      9260.0    1.7037E-5           0.
      9270.0    1.3365E-5           0.
      9280.0    9.5241E-6           0.
      9290.0    1.5645E-5           0.
      9300.0    8.5844E-6           0.
      9310.0    1.3661E-5           0.
      9320.0    5.6341E-6           0.
      9330.0    2.3877E-6           0.
      9340.0    1.4638E-5           0.
      9350.0    5.5739E-6           0.
      9360.0    4.0617E-6           0.
      9370.0    2.1103E-5           0.
      9380.0    1.7737E-5           0.
      9390.0    4.1693E-6           0.
      9400.0    1.1164E-5           0.
      9410.0    1.4816E-5           0.
      9420.0    2.6108E-5           0.
      9430.0    5.6242E-6           0.
      9440.0    6.3161E-6           0.
      9450.0    1.7017E-5           0.
      9460.0    1.7905E-5           0.
      9470.0    1.3424E-5           0.
      9480.0    1.0779E-5           0.
      9490.0    1.6671E-5           0.
      9500.0    8.6979E-6           0.
      9510.0    3.1951E-6           0.
      9520.0    5.2807E-6           0.
      9530.0    2.8052E-6           0.
      9540.0    8.2212E-6           0.
      9550.0    1.3809E-5           0.
      9560.0    6.0358E-6           0.
      9570.0    1.1973E-5           0.
      9580.0    1.2447E-5           0.
      9590.0    2.5199E-6           0.
      9600.0    1.4431E-5           0.
      9610.0    1.0167E-5           0.
      9620.0    1.9731E-5           0.
      9630.0    1.2486E-5           0.
      9640.0    1.5605E-5           0.
      9650.0    2.2752E-5           0.
      9660.0    2.3581E-5           0.
      9670.0    1.9020E-5           0.
      9680.0    2.4755E-5           0.
      9690.0    3.0530E-5           0.
      9700.0    4.0380E-5           0.
      9710.0    3.2464E-5           0.
      9720.0    2.6295E-5           0.
      9730.0    1.9899E-5           0.
      9740.0    2.4232E-5           0.
      9750.0    3.7873E-5           0.
      9760.0    3.0214E-5           0.
      9770.0    2.1310E-5           0.
      9780.0    2.2534E-5           0.
      9790.0    1.9080E-5           0.
      9800.0    8.3988E-6           0.
      9810.0    2.2525E-5           0.
      9820.0    2.1498E-5           0.
      9830.0    1.8675E-5           0.
      9840.0    1.6069E-5           0.
      9850.0    1.9090E-5           0.
      9860.0    1.5576E-5           0.
      9870.0    2.3472E-5           0.
      9880.0    2.4400E-5           0.
      9890.0    2.2219E-5           0.
      9900.0    2.9019E-5           0.
      9910.0    3.8426E-5           0.
      9920.0    4.0667E-5           0.
      9930.0    4.4980E-5           0.
      9940.0    5.2570E-5           0.
      9950.0    5.5541E-5           0.
      9960.0    7.0910E-5           0.
      9970.0    7.4976E-5           0.
      9980.0    8.1886E-5           0.
      9990.0    8.0731E-5           0.
     10000.0    7.8096E-5           0.
     10010.0    7.6112E-5           0.
     10020.0    7.9971E-5           0.
     10030.0    7.5677E-5           0.
     10040.0    5.3390E-5           0.
     10050.0    5.6449E-5           0.
     10060.0    4.4753E-5           0.
     10070.0    4.7793E-5           0.
     10080.0    4.4032E-5           0.
     10090.0    4.1081E-5           0.
     10100.0    3.6096E-5           0.
     10110.0    4.0815E-5           0.
     10120.0    3.6304E-5           0.
     10130.0    3.4349E-5           0.
     10140.0    5.2995E-5           0.
     10150.0    6.3813E-5           0.
     10160.0    6.8758E-5           0.
     10170.0    6.2095E-5           0.
     10180.0    6.2796E-5           0.
     10190.0    4.6263E-5           0.
     10200.0    4.4664E-5           0.
     10210.0    3.1299E-5           0.
     10220.0    2.6571E-5           0.
     10230.0    3.5563E-5           0.
     10240.0    3.7834E-5           0.
     10250.0    3.9393E-5           0.
     10260.0    3.9571E-5           0.
     10270.0    4.2670E-5           0.
     10280.0    5.4791E-5           0.
     10290.0    6.2392E-5           0.
     10300.0    8.8055E-5           0.
     10310.0    8.7364E-5           0.
     10320.0    9.5547E-5           0.
     10330.0    1.1065E-4           0.
     10340.0    1.2526E-4           0.
     10350.0    1.2328E-4           0.
     10360.0    1.1943E-4           0.
     10370.0    1.1400E-4           0.
     10380.0    1.0315E-4           0.
     10390.0    9.4372E-5           0.
     10400.0    1.0788E-4           0.
     10410.0    9.6168E-5           0.
     10420.0    8.7265E-5           0.
     10430.0    8.5163E-5           0.
     10440.0    7.5746E-5           0.
     10450.0    5.9470E-5           0.
     10460.0    6.2925E-5           0.
     10470.0    4.9096E-5           0.
     10480.0    5.6736E-5           0.
     10490.0    4.5523E-5           0.
     10500.0    5.8957E-5           0.
     10510.0    5.3281E-5           0.
     10520.0    5.0655E-5           0.
     10530.0    5.0340E-5           0.
     10540.0    4.5395E-5           0.
     10550.0    4.9629E-5           0.
     10560.0    5.7535E-5           0.
     10570.0    5.8749E-5           0.
     10580.0    7.4414E-5           0.
     10590.0    9.0730E-5           0.
     10600.0    1.0631E-4           0.
     10610.0    1.4253E-4           0.
     10620.0    1.6306E-4           0.
     10630.0    1.9297E-4           0.
     10640.0    2.1083E-4           0.
     10650.0    2.3215E-4           0.
     10660.0    2.4114E-4           0.
     10670.0    2.5239E-4           0.
     10680.0    2.4982E-4           0.
     10690.0    2.3956E-4           0.
     10700.0    2.2880E-4           0.
     10710.0    2.1942E-4           0.
     10720.0    2.0560E-4           0.
     10730.0    1.9326E-4           0.
     10740.0    1.9692E-4           0.
     10750.0    1.7727E-4           0.
     10760.0    1.7323E-4           0.
     10770.0    1.6089E-4           0.
     10780.0    1.5270E-4           0.
     10790.0    1.5339E-4           0.
     10800.0    1.6099E-4           0.
     10810.0    1.4796E-4           0.
     10820.0    1.5625E-4           0.
     10830.0    1.7017E-4           0.
     10840.0    1.8468E-4           0.
     10850.0    2.0442E-4           0.
     10860.0    2.1074E-4           0.
     10870.0    2.4518E-4           0.
     10880.0    2.6127E-4           0.
     10890.0    2.8022E-4           0.
     10900.0    2.8792E-4           0.
     10910.0    2.9572E-4           0.
     10920.0    3.0026E-4           0.
     10930.0    2.9848E-4           0.
     10940.0    2.9740E-4           0.
     10950.0    3.0638E-4           0.
     10960.0    3.0451E-4           0.
     10970.0    3.1092E-4           0.
     10980.0    3.3214E-4           0.
     10990.0    3.5603E-4           0.
     11000.0    3.4863E-4           0.
